title:yyhh, start timestamp:1710116259.221761, stop timestamp:1710116329.468790, headset type:MN8, headset serial:68B4, headset firmware:27, channels:48, sampling rate:eeg_128;mot_6;mc_8;pm_0.1;pow_8, samples:8585      , version:2.2, 
Timestamp,EEG.Counter,EEG.Interpolated,EEG.T7,EEG.T8,EEG.RawCq,EEG.Battery,EEG.BatteryPercent,MarkerIndex,MarkerType,MarkerValueInt,EEG.MarkerHardware,CQ.T7,CQ.T8,CQ.Overall,EQ.SampleRateQuality,EQ.OVERALL,EQ.T7,EQ.T8,MOT.CounterMems,MOT.InterpolatedMems,MOT.Q0,MOT.Q1,MOT.Q2,MOT.Q3,MC.Action,MC.ActionPower,MC.IsActive,PM.Attention.IsActive,PM.Attention.Scaled,PM.Attention.Raw,PM.Attention.Min,PM.Attention.Max,PM.CognitiveStress.IsActive,PM.CognitiveStress.Scaled,PM.CognitiveStress.Raw,PM.CognitiveStress.Min,PM.CognitiveStress.Max,POW.T7.Theta,POW.T7.Alpha,POW.T7.BetaL,POW.T7.BetaH,POW.T7.Gamma,POW.T8.Theta,POW.T8.Alpha,POW.T8.BetaL,POW.T8.BetaH,POW.T8.Gamma
1710116259.221761,52.000000,0.000000,4226.285645,4219.619141,0.000000,2.000000,40.000000,,,,0.000000,4.000000,4.000000,100.000000,,,,,,,,,,,,,,,,,,,,,,,,,,,,,,,,,
1710116259.229720,53.000000,0.000000,4220.095215,4225.333496,0.000000,2.000000,40.000000,,,,0.000000,4.000000,4.000000,100.000000,,,,,,,,,,,,,,,,,,,,,,,,,,,,,,,,,
1710116259.237579,54.000000,0.000000,4210.095215,4220.095215,0.000000,2.000000,40.000000,,,,0.000000,4.000000,4.000000,100.000000,,,,,,,,,,,,,,,,,,,,,,,,,,,,,,,,,
1710116259.245438,55.000000,0.000000,4212.952148,4214.380859,0.000000,2.000000,40.000000,,,,0.000000,4.000000,4.000000,100.000000,,,,,,,,,,,,,,,,,,,,,,,,,,,,,,,,,
1710116259.253297,56.000000,0.000000,4217.714355,4216.285645,0.000000,2.000000,40.000000,,,,0.000000,4.000000,4.000000,100.000000,,,,,,,,,,,,,,,,,,,,,,,,,,,,,,,,,
1710116259.261156,57.000000,0.000000,4216.761719,4225.809570,0.000000,2.000000,40.000000,,,,0.000000,4.000000,4.000000,100.000000,,,,,,,,,,,,,,,,,,,,,,,,,,,,,,,,,
1710116259.269118,58.000000,0.000000,4214.380859,4233.904785,0.000000,2.000000,40.000000,,,,0.000000,4.000000,4.000000,100.000000,,,,,,,,,,,,,,,,,,,,,,,,,,,,,,,,,
1710116259.276981,59.000000,0.000000,4210.571289,4230.095215,0.000000,2.000000,40.000000,,,,0.000000,4.000000,4.000000,100.000000,,,,,,,,,,,,,,,,,,,,,,,,,,,,,,,,,
1710116259.284843,60.000000,0.000000,4208.666504,4224.856934,0.000000,2.000000,40.000000,,,,0.000000,4.000000,4.000000,100.000000,,,,,,,,,,,,,,,,,,,,,,,,,,,,,,,,,
1710116259.292706,61.000000,0.000000,4213.904785,4227.714355,0.000000,2.000000,40.000000,,,,0.000000,4.000000,4.000000,100.000000,,,,,,,,,,,,,,,,,,,,,,,,,,,,,,,,,
1710116259.300568,62.000000,0.000000,4221.523926,4230.095215,0.000000,2.000000,40.000000,,,,0.000000,4.000000,4.000000,100.000000,,,,,,,,,,,,,,,,,,,,,,,,,,,,,,,,,
1710116259.308529,63.000000,0.000000,4224.856934,4228.190430,0.000000,2.000000,40.000000,,,,0.000000,4.000000,4.000000,100.000000,,,,,6.000000,0.000000,0.538850,0.269531,-0.761719,-0.238281,,,,,,,,,,,,,,,,,,,,,,,
1710116259.316389,64.000000,0.000000,4224.856934,4224.380859,0.000000,2.000000,40.000000,,,,0.000000,4.000000,4.000000,100.000000,,,,,,,,,,,,,,,,,,,,,,,,,,,,,,,,,
1710116259.324250,65.000000,0.000000,4222.476074,4217.714355,0.000000,2.000000,40.000000,,,,0.000000,4.000000,4.000000,100.000000,,,,,,,,,,,,,,,,,,,,,,,,,,,,,,,,,
1710116259.332110,66.000000,0.000000,4216.761719,4217.714355,0.000000,2.000000,40.000000,,,,0.000000,4.000000,4.000000,100.000000,,,,,,,,,,,1.000000,0.000000,0.000000,,,,,,,,,,,1.254804,0.243672,0.369927,0.099216,0.063894,1.327926,0.542166,0.326184,0.343845,0.108164
1710116259.339970,67.000000,0.000000,4209.619141,4227.714355,0.000000,2.000000,40.000000,,,,0.000000,4.000000,4.000000,100.000000,,,,,,,,,,,,,,,,,,,,,,,,,,,,,,,,,
1710116259.347931,68.000000,0.000000,4207.238281,4226.761719,0.000000,2.000000,40.000000,,,,0.000000,4.000000,4.000000,100.000000,,,,,,,,,,,,,,,,,,,,,,,,,,,,,,,,,
1710116259.355793,69.000000,0.000000,4211.047852,4209.143066,0.000000,2.000000,40.000000,,,,0.000000,4.000000,4.000000,100.000000,,,,,,,,,,,,,,,,,,,,,,,,,,,,,,,,,
1710116259.363654,70.000000,0.000000,4216.285645,4201.047852,0.000000,2.000000,40.000000,,,,0.000000,4.000000,4.000000,100.000000,,,,,,,,,,,,,,,,,,,,,,,,,,,,,,,,,
1710116259.371515,71.000000,0.000000,4219.143066,4211.047852,0.000000,2.000000,40.000000,,,,0.000000,4.000000,4.000000,100.000000,,,,,,,,,,,,,,,,,,,,,,,,,,,,,,,,,
1710116259.379376,72.000000,0.000000,4221.047852,4218.666504,0.000000,2.000000,40.000000,,,,0.000000,4.000000,4.000000,100.000000,,,,,,,,,,,,,,,,,,,,,,,,,,,,,,,,,
1710116259.387335,73.000000,0.000000,4223.428711,4216.761719,0.000000,2.000000,40.000000,,,,0.000000,4.000000,4.000000,100.000000,,,,,,,,,,,,,,,,,,,,,,,,,,,,,,,,,
1710116259.395194,74.000000,0.000000,4223.428711,4218.190430,0.000000,2.000000,40.000000,,,,0.000000,4.000000,4.000000,100.000000,,,,,,,,,,,,,,,,,,,,,,,,,,,,,,,,,
1710116259.403054,75.000000,0.000000,4219.143066,4220.571289,0.000000,2.000000,40.000000,,,,0.000000,4.000000,4.000000,100.000000,,,,,,,,,,,,,,,,,,,,,,,,,,,,,,,,,
1710116259.410913,76.000000,0.000000,4217.714355,4214.380859,0.000000,2.000000,40.000000,,,,0.000000,4.000000,4.000000,100.000000,,,,,,,,,,,,,,,,,,,,,,,,,,,,,,,,,
1710116259.418772,77.000000,0.000000,4219.143066,4209.143066,0.000000,2.000000,40.000000,,,,0.000000,4.000000,4.000000,100.000000,,,,,,,,,,,,,,,,,,,,,,,,,,,,,,,,,
1710116259.426734,78.000000,0.000000,4213.904785,4215.333496,0.000000,2.000000,40.000000,,,,0.000000,4.000000,4.000000,100.000000,,,,,,,,,,,,,,,,,,,,,,,,,,,,,,,,,
1710116259.434597,79.000000,0.000000,4207.714355,4223.428711,0.000000,2.000000,40.000000,,,,0.000000,4.000000,4.000000,100.000000,,,,,,,,,,,,,,,,,,,,,,,,,,,,,,,,,
1710116259.442460,80.000000,0.000000,4210.571289,4221.047852,0.000000,2.000000,40.000000,,,,0.000000,4.000000,4.000000,100.000000,,,,,,,,,,,,,,,,,,,,,,,,,,,,,,,,,
1710116259.450322,81.000000,0.000000,4211.047852,4212.476074,0.000000,2.000000,40.000000,,,,0.000000,4.000000,4.000000,100.000000,,,,,,,,,,,,,,,,,,,,,,,,,,,,,,,,,
1710116259.458185,82.000000,0.000000,4207.238281,4208.190430,0.000000,2.000000,40.000000,,,,0.000000,4.000000,4.000000,100.000000,1.000000,100.000000,4.000000,4.000000,,,,,,,1.000000,0.000000,0.000000,,,,,,,,,,,1.526585,0.233920,0.360423,0.107938,0.078459,1.192961,0.430134,0.365812,0.413413,0.119595
1710116259.466145,83.000000,0.000000,4213.428711,4212.476074,0.000000,2.000000,40.000000,,,,0.000000,4.000000,4.000000,100.000000,,,,,7.000000,0.000000,0.544078,0.273438,-0.757813,-0.234375,,,,,,,,,,,,,,,,,,,,,,,
1710116259.474006,84.000000,0.000000,4223.904785,4219.143066,0.000000,2.000000,40.000000,,,,0.000000,4.000000,4.000000,100.000000,,,,,,,,,,,,,,,,,,,,,,,,,,,,,,,,,
1710116259.481867,85.000000,0.000000,4221.047852,4216.761719,0.000000,2.000000,40.000000,,,,0.000000,4.000000,4.000000,100.000000,,,,,,,,,,,,,,,,,,,,,,,,,,,,,,,,,
1710116259.489727,86.000000,0.000000,4213.904785,4211.047852,0.000000,2.000000,40.000000,,,,0.000000,4.000000,4.000000,100.000000,,,,,,,,,,,,,,,,,,,,,,,,,,,,,,,,,
1710116259.497588,87.000000,0.000000,4214.380859,4207.714355,0.000000,2.000000,40.000000,,,,0.000000,4.000000,4.000000,100.000000,,,,,,,,,,,,,,,,,,,,,,,,,,,,,,,,,
1710116259.505547,88.000000,0.000000,4217.714355,4203.428711,0.000000,2.000000,40.000000,,,,0.000000,4.000000,4.000000,100.000000,,,,,,,,,,,,,,,,,,,,,,,,,,,,,,,,,
1710116259.513405,89.000000,0.000000,4220.571289,4202.000000,0.000000,2.000000,40.000000,,,,0.000000,4.000000,4.000000,100.000000,,,,,,,,,,,,,,,,,,,,,,,,,,,,,,,,,
1710116259.521264,90.000000,0.000000,4221.523926,4202.476074,0.000000,2.000000,40.000000,,,,0.000000,4.000000,4.000000,100.000000,,,,,,,,,,,,,,,,,,,,,,,,,,,,,,,,,
1710116259.529123,91.000000,0.000000,4216.285645,4197.238281,0.000000,2.000000,40.000000,,,,0.000000,4.000000,4.000000,100.000000,,,,,,,,,,,,,,,,,,,,,,,,,,,,,,,,,
1710116259.536982,92.000000,0.000000,4214.380859,4197.714355,0.000000,2.000000,40.000000,,,,0.000000,4.000000,4.000000,100.000000,,,,,,,,,,,,,,,,,,,,,,,,,,,,,,,,,
1710116259.544949,93.000000,0.000000,4219.619141,4209.619141,0.000000,2.000000,40.000000,,,,0.000000,4.000000,4.000000,100.000000,,,,,,,,,,,,,,,,,,,,,,,,,,,,,,,,,
1710116259.552816,94.000000,0.000000,4214.380859,4210.095215,0.000000,2.000000,40.000000,,,,0.000000,4.000000,4.000000,100.000000,,,,,,,,,,,,,,,,,,,,,,,,,,,,,,,,,
1710116259.560684,95.000000,0.000000,4199.143066,4196.761719,0.000000,2.000000,40.000000,,,,0.000000,4.000000,4.000000,100.000000,,,,,,,,,,,,,,,,,,,,,,,,,,,,,,,,,
1710116259.568551,96.000000,0.000000,4194.856934,4195.333496,0.000000,2.000000,40.000000,,,,0.000000,4.000000,4.000000,100.000000,,,,,,,,,,,,,,,,,,,,,,,,,,,,,,,,,
1710116259.576418,97.000000,0.000000,4203.428711,4207.238281,0.000000,2.000000,40.000000,,,,0.000000,4.000000,4.000000,100.000000,,,,,,,,,,,,,,,,,,,,,,,,,,,,,,,,,
1710116259.584381,98.000000,0.000000,4204.856934,4210.571289,0.000000,2.000000,40.000000,,,,0.000000,4.000000,4.000000,100.000000,,,,,,,,,,,1.000000,0.000000,0.000000,,,,,,,,,,,1.634325,0.232875,0.345291,0.121838,0.103298,1.172511,0.333927,0.415030,0.470455,0.141812
1710116259.592243,99.000000,0.000000,4201.047852,4202.952148,0.000000,2.000000,40.000000,,,,0.000000,4.000000,4.000000,100.000000,,,,,,,,,,,,,,,,,,,,,,,,,,,,,,,,,
1710116259.600106,100.000000,0.000000,4203.428711,4200.571289,0.000000,2.000000,40.000000,,,,0.000000,4.000000,4.000000,100.000000,,,,,,,,,,,,,,,,,,,,,,,,,,,,,,,,,
1710116259.607968,101.000000,0.000000,4206.285645,4205.809570,0.000000,2.000000,40.000000,,,,0.000000,4.000000,4.000000,100.000000,,,,,,,,,,,,,,,,,,,,,,,,,,,,,,,,,
1710116259.615831,102.000000,0.000000,4203.428711,4210.095215,0.000000,2.000000,40.000000,,,,0.000000,4.000000,4.000000,100.000000,,,,,,,,,,,,,,,,,,,,,,,,,,,,,,,,,
1710116259.623792,103.000000,0.000000,4204.856934,4208.666504,0.000000,2.000000,40.000000,,,,0.000000,4.000000,4.000000,100.000000,,,,,8.000000,0.000000,0.547182,0.281250,-0.753906,-0.230469,,,,,,,,,,,,,,,,,,,,,,,
1710116259.631652,104.000000,0.000000,4208.190430,4203.428711,0.000000,2.000000,40.000000,,,,0.000000,4.000000,4.000000,100.000000,,,,,,,,,,,,,,,,,,,,,,,,,,,,,,,,,
1710116259.639513,105.000000,0.000000,4199.619141,4198.190430,0.000000,2.000000,40.000000,,,,0.000000,4.000000,4.000000,100.000000,,,,,,,,,,,,,,,,,,,,,,,,,,,,,,,,,
1710116259.647373,106.000000,0.000000,4188.666504,4196.761719,0.000000,2.000000,40.000000,,,,0.000000,4.000000,4.000000,100.000000,,,,,,,,,,,,,,,,,,,,,,,,,,,,,,,,,
1710116259.655234,107.000000,0.000000,4190.095215,4195.333496,0.000000,2.000000,40.000000,,,,0.000000,4.000000,4.000000,100.000000,,,,,,,,,,,,,,,,,,,,,,,,,,,,,,,,,
1710116259.663193,108.000000,0.000000,4193.428711,4188.666504,0.000000,2.000000,40.000000,,,,0.000000,4.000000,4.000000,100.000000,,,,,,,,,,,,,,,,,,,,,,,,,,,,,,,,,
1710116259.671051,109.000000,0.000000,4189.143066,4181.047852,0.000000,2.000000,40.000000,,,,0.000000,4.000000,4.000000,100.000000,,,,,,,,,,,,,,,,,,,,,,,,,,,,,,,,,
1710116259.678910,110.000000,0.000000,4190.095215,4178.666504,0.000000,2.000000,40.000000,,,,0.000000,4.000000,4.000000,100.000000,,,,,,,,,,,,,,,,,,,,,,,,,,,,,,,,,
1710116259.686768,111.000000,0.000000,4195.809570,4180.095215,0.000000,2.000000,40.000000,,,,0.000000,4.000000,4.000000,100.000000,,,,,,,,,,,,,,,,,,,,,,,,,,,,,,,,,
1710116259.694627,112.000000,0.000000,4197.238281,4182.476074,0.000000,2.000000,40.000000,,,,0.000000,4.000000,4.000000,100.000000,,,,,,,,,,,,,,,,,,,,,,,,,,,,,,,,,
1710116259.702586,113.000000,0.000000,4198.666504,4178.666504,0.000000,2.000000,40.000000,,,,0.000000,4.000000,4.000000,100.000000,,,,,,,,,,,,,,,,,,,,,,,,,,,,,,,,,
1710116259.710445,114.000000,0.000000,4201.047852,4168.190430,0.000000,2.000000,40.000000,,,,0.000000,4.000000,4.000000,100.000000,,,,,,,,,,,1.000000,0.000000,0.000000,,,,,,,,,,,1.561116,0.250860,0.338409,0.138497,0.133758,1.292921,0.276755,0.471398,0.503694,0.172436
1710116259.718304,115.000000,0.000000,4197.238281,4163.428711,0.000000,2.000000,40.000000,,,,0.000000,4.000000,4.000000,100.000000,,,,,,,,,,,,,,,,,,,,,,,,,,,,,,,,,
1710116259.726163,116.000000,0.000000,4198.666504,4172.476074,0.000000,2.000000,40.000000,,,,0.000000,4.000000,4.000000,100.000000,,,,,,,,,,,,,,,,,,,,,,,,,,,,,,,,,
1710116259.734023,117.000000,0.000000,4209.619141,4177.238281,0.000000,2.000000,40.000000,,,,0.000000,4.000000,4.000000,100.000000,,,,,,,,,,,,,,,,,,,,,,,,,,,,,,,,,
1710116259.741983,118.000000,0.000000,4213.428711,4168.666504,0.000000,2.000000,40.000000,,,,0.000000,4.000000,4.000000,100.000000,,,,,,,,,,,,,,,,,,,,,,,,,,,,,,,,,
1710116259.749842,119.000000,0.000000,4207.714355,4161.523926,0.000000,2.000000,40.000000,,,,0.000000,4.000000,4.000000,100.000000,,,,,,,,,,,,,,,,,,,,,,,,,,,,,,,,,
1710116259.757702,120.000000,0.000000,4203.904785,4163.904785,0.000000,2.000000,40.000000,,,,0.000000,4.000000,4.000000,100.000000,,,,,,,,,,,,,,,,,,,,,,,,,,,,,,,,,
1710116259.765562,121.000000,0.000000,4197.714355,4164.380859,0.000000,2.000000,40.000000,,,,0.000000,4.000000,4.000000,100.000000,,,,,,,,,,,,,,,,,,,,,,,,,,,,,,,,,
1710116259.773422,122.000000,0.000000,4190.571289,4162.000000,0.000000,2.000000,40.000000,,,,0.000000,4.000000,4.000000,100.000000,,,,,,,,,,,,,,,,,,,,,,,,,,,,,,,,,
1710116259.781383,123.000000,0.000000,4197.238281,4165.333496,0.000000,2.000000,40.000000,,,,0.000000,4.000000,4.000000,100.000000,,,,,9.000000,0.000000,0.547182,0.281250,-0.753906,-0.230469,,,,,,,,,,,,,,,,,,,,,,,
1710116259.789244,124.000000,0.000000,4208.190430,4170.095215,0.000000,2.000000,40.000000,,,,0.000000,4.000000,4.000000,100.000000,,,,,,,,,,,,,,,,,,,,,,,,,,,,,,,,,
1710116259.797104,125.000000,0.000000,4204.380859,4166.761719,0.000000,2.000000,40.000000,,,,0.000000,4.000000,4.000000,100.000000,,,,,,,,,,,,,,,,,,,,,,,,,,,,,,,,,
1710116259.804965,126.000000,0.000000,4198.666504,4162.476074,0.000000,2.000000,40.000000,,,,0.000000,4.000000,4.000000,100.000000,,,,,,,,,,,,,,,,,,,,,,,,,,,,,,,,,
1710116259.812825,127.000000,0.000000,4205.809570,4170.571289,0.000000,2.000000,40.000000,,,,0.000000,4.000000,4.000000,100.000000,,,,,,,,,,,,,,,,,,,,,,,,,,,,,,,,,
1710116259.820784,0.000000,0.000000,4212.476074,4185.333496,0.000000,2.000000,40.000000,,,,0.000000,4.000000,4.000000,100.000000,,,,,,,,,,,,,,,,,,,,,,,,,,,,,,,,,
1710116259.828642,1.000000,0.000000,4210.095215,4192.952148,0.000000,2.000000,40.000000,,,,0.000000,4.000000,4.000000,100.000000,,,,,,,,,,,,,,,,,,,,,,,,,,,,,,,,,
1710116259.836501,2.000000,0.000000,4207.238281,4190.095215,0.000000,2.000000,40.000000,,,,0.000000,4.000000,4.000000,100.000000,,,,,,,,,,,1.000000,0.000000,0.000000,,,,,,,,,,,1.334897,0.294598,0.351039,0.155560,0.162852,1.514655,0.261603,0.521682,0.508748,0.207045
1710116259.844359,3.000000,0.000000,4207.714355,4179.143066,0.000000,2.000000,40.000000,,,,0.000000,4.000000,4.000000,100.000000,,,,,,,,,,,,,,,,,,,,,,,,,,,,,,,,,
1710116259.852218,4.000000,0.000000,4211.047852,4168.190430,0.000000,2.000000,40.000000,,,,0.000000,4.000000,4.000000,100.000000,,,,,,,,,,,,,,,,,,,,,,,,,,,,,,,,,
1710116259.860179,5.000000,0.000000,4217.238281,4170.095215,0.000000,2.000000,40.000000,,,,0.000000,4.000000,4.000000,100.000000,,,,,,,,,,,,,,,,,,,,,,,,,,,,,,,,,
1710116259.868041,6.000000,0.000000,4219.143066,4178.666504,0.000000,2.000000,40.000000,,,,0.000000,4.000000,4.000000,100.000000,,,,,,,,,,,,,,,,,,,,,,,,,,,,,,,,,
1710116259.875903,7.000000,0.000000,4215.333496,4178.190430,0.000000,2.000000,40.000000,,,,0.000000,4.000000,4.000000,100.000000,,,,,,,,,,,,,,,,,,,,,,,,,,,,,,,,,
1710116259.883764,8.000000,0.000000,4213.904785,4172.000000,0.000000,2.000000,40.000000,,,,0.000000,4.000000,4.000000,100.000000,,,,,,,,,,,,,,,,,,,,,,,,,,,,,,,,,
1710116259.891626,9.000000,0.000000,4217.238281,4173.904785,0.000000,2.000000,40.000000,,,,0.000000,4.000000,4.000000,100.000000,,,,,,,,,,,,,,,,,,,,,,,,,,,,,,,,,
1710116259.899589,10.000000,0.000000,4222.476074,4178.666504,0.000000,2.000000,40.000000,,,,0.000000,4.000000,4.000000,100.000000,,,,,,,,,,,,,,,,,,,,,,,,,,,,,,,,,
1710116259.907451,11.000000,0.000000,4231.047852,4178.190430,0.000000,2.000000,40.000000,,,,0.000000,4.000000,4.000000,100.000000,,,,,,,,,,,,,,,,,,,,,,,,,,,,,,,,,
1710116259.915314,12.000000,0.000000,4240.095215,4182.476074,0.000000,2.000000,40.000000,,,,0.000000,4.000000,4.000000,100.000000,,,,,,,,,,,,,,,,,,,,,,,,,,,,,,,,,
1710116259.923177,13.000000,0.000000,4242.000000,4192.476074,0.000000,2.000000,40.000000,,,,0.000000,4.000000,4.000000,100.000000,,,,,,,,,,,,,,,,,,,,,,,,,,,,,,,,,
1710116259.931040,14.000000,0.000000,4238.190430,4191.047852,0.000000,2.000000,40.000000,,,,0.000000,4.000000,4.000000,100.000000,,,,,,,,,,,,,,,,,,,,,,,,,,,,,,,,,
1710116259.939002,15.000000,0.000000,4237.714355,4185.333496,0.000000,2.000000,40.000000,,,,0.000000,4.000000,4.000000,100.000000,,,,,10.000000,0.000000,0.550102,0.289063,-0.750000,-0.226563,,,,,,,,,,,,,,,,,,,,,,,
1710116259.946863,16.000000,0.000000,4238.190430,4190.095215,0.000000,2.000000,40.000000,,,,0.000000,4.000000,4.000000,100.000000,,,,,,,,,,,,,,,,,,,,,,,,,,,,,,,,,
1710116259.954725,17.000000,0.000000,4236.285645,4185.809570,0.000000,2.000000,40.000000,,,,0.000000,4.000000,4.000000,100.000000,,,,,,,,,,,,,,,,,,,,,,,,,,,,,,,,,
1710116259.962587,18.000000,0.000000,4235.333496,4172.476074,0.000000,2.000000,40.000000,,,,0.000000,4.000000,4.000000,100.000000,1.000000,100.000000,4.000000,4.000000,,,,,,,1.000000,0.000000,0.000000,,,,,,,,,,,1.025893,0.370022,0.383688,0.170418,0.183970,1.716425,0.271248,0.550126,0.489160,0.240279
1710116259.970449,19.000000,0.000000,4238.666504,4179.143066,0.000000,2.000000,40.000000,,,,0.000000,4.000000,4.000000,100.000000,,,,,,,,,,,,,,,,,,,,,,,,,,,,,,,,,
1710116259.978408,20.000000,0.000000,4242.476074,4192.476074,0.000000,2.000000,40.000000,,,,0.000000,4.000000,4.000000,100.000000,,,,,,,,,,,,,,,,,,,,,,,,,,,,,,,,,
1710116259.986266,21.000000,0.000000,4240.095215,4187.714355,0.000000,2.000000,40.000000,,,,0.000000,4.000000,4.000000,100.000000,,,,,,,,,,,,,,,,,,,,,,,,,,,,,,,,,
1710116259.994125,22.000000,0.000000,4231.047852,4189.143066,0.000000,2.000000,40.000000,,,,0.000000,4.000000,4.000000,100.000000,,,,,,,,,,,,,,,,,,,,,,,,,,,,,,,,,
1710116260.001984,23.000000,0.000000,4226.761719,4199.143066,0.000000,2.000000,40.000000,,,,0.000000,4.000000,4.000000,100.000000,,,,,,,,,,,,,,,,,,,,,,,,,,,,,,,,,
1710116260.009843,24.000000,0.000000,4232.000000,4190.571289,0.000000,2.000000,40.000000,,,,0.000000,4.000000,4.000000,100.000000,,,,,,,,,,,,,,,,,,,,,,,,,,,,,,,,,
1710116260.017802,25.000000,0.000000,4233.904785,4180.571289,0.000000,2.000000,40.000000,,,,0.000000,4.000000,4.000000,100.000000,,,,,,,,,,,,,,,,,,,,,,,,,,,,,,,,,
1710116260.025661,26.000000,0.000000,4227.238281,4189.619141,0.000000,2.000000,40.000000,,,,0.000000,4.000000,4.000000,100.000000,,,,,,,,,,,,,,,,,,,,,,,,,,,,,,,,,
1710116260.033520,27.000000,0.000000,4226.761719,4189.619141,0.000000,2.000000,40.000000,,,,0.000000,4.000000,4.000000,100.000000,,,,,,,,,,,,,,,,,,,,,,,,,,,,,,,,,
1710116260.041380,28.000000,0.000000,4233.904785,4177.238281,0.000000,2.000000,40.000000,,,,0.000000,4.000000,4.000000,100.000000,,,,,,,,,,,,,,,,,,,,,,,,,,,,,,,,,
1710116260.049239,29.000000,0.000000,4232.000000,4179.143066,0.000000,2.000000,40.000000,,,,0.000000,4.000000,4.000000,100.000000,,,,,,,,,,,,,,,,,,,,,,,,,,,,,,,,,
1710116260.057199,30.000000,0.000000,4223.904785,4188.190430,0.000000,2.000000,40.000000,,,,0.000000,4.000000,4.000000,100.000000,,,,,,,,,,,,,,,,,,,,,,,,,,,,,,,,,
1710116260.065059,31.000000,0.000000,4223.904785,4187.238281,0.000000,2.000000,40.000000,,,,0.000000,4.000000,4.000000,100.000000,,,,,,,,,,,,,,,,,,,,,,,,,,,,,,,,,
1710116260.072918,32.000000,0.000000,4224.380859,4186.761719,0.000000,2.000000,40.000000,,,,0.000000,4.000000,4.000000,100.000000,,,,,,,,,,,,,,,,,,,,,,,,,,,,,,,,,
1710116260.080778,33.000000,0.000000,4217.238281,4190.571289,0.000000,2.000000,40.000000,,,,0.000000,4.000000,4.000000,100.000000,,,,,,,,,,,,,,,,,,,,,,,,,,,,,,,,,
1710116260.088638,34.000000,0.000000,4214.856934,4189.143066,0.000000,2.000000,40.000000,,,,0.000000,4.000000,4.000000,100.000000,,,,,,,,,,,1.000000,0.000000,0.000000,,,,,,,,,,,0.736216,0.476288,0.423610,0.182509,0.193621,1.858012,0.289678,0.541645,0.455712,0.266793
1710116260.096602,35.000000,0.000000,4217.238281,4181.047852,0.000000,2.000000,40.000000,,,,0.000000,4.000000,4.000000,100.000000,,,,,11.000000,0.000000,0.554921,0.292969,-0.746094,-0.222656,,,,,,,,,,,,,,,,,,,,,,,
1710116260.104465,36.000000,0.000000,4211.523926,4174.856934,0.000000,2.000000,40.000000,,,,0.000000,4.000000,4.000000,100.000000,,,,,,,,,,,,,,,,,,,,,,,,,,,,,,,,,
1710116260.112328,37.000000,0.000000,4206.761719,4172.952148,0.000000,2.000000,40.000000,,,,0.000000,4.000000,4.000000,100.000000,,,,,,,,,,,,,,,,,,,,,,,,,,,,,,,,,
1710116260.120191,38.000000,0.000000,4212.000000,4174.856934,0.000000,2.000000,40.000000,,,,0.000000,4.000000,4.000000,100.000000,,,,,,,,,,,,,,,,,,,,,,,,,,,,,,,,,
1710116260.128055,39.000000,0.000000,4211.523926,4177.714355,0.000000,2.000000,40.000000,,,,0.000000,4.000000,4.000000,100.000000,,,,,,,,,,,,,,,,,,,,,,,,,,,,,,,,,
1710116260.136013,40.000000,0.000000,4203.904785,4175.809570,0.000000,2.000000,40.000000,,,,0.000000,4.000000,4.000000,100.000000,,,,,,,,,,,,,,,,,,,,,,,,,,,,,,,,,
1710116260.143872,41.000000,0.000000,4203.428711,4166.285645,0.000000,2.000000,40.000000,,,,0.000000,4.000000,4.000000,100.000000,,,,,,,,,,,,,,,,,,,,,,,,,,,,,,,,,
1710116260.151731,42.000000,0.000000,4205.809570,4159.619141,0.000000,2.000000,40.000000,,,,0.000000,4.000000,4.000000,100.000000,,,,,,,,,,,,,,,,,,,,,,,,,,,,,,,,,
1710116260.159590,43.000000,0.000000,4199.143066,4159.143066,0.000000,2.000000,40.000000,,,,0.000000,4.000000,4.000000,100.000000,,,,,,,,,,,,,,,,,,,,,,,,,,,,,,,,,
1710116260.167448,44.000000,0.000000,4192.476074,4161.523926,0.000000,2.000000,40.000000,,,,0.000000,4.000000,4.000000,100.000000,,,,,,,,,,,,,,,,,,,,,,,,,,,,,,,,,
1710116260.175408,45.000000,0.000000,4195.333496,4166.761719,0.000000,2.000000,40.000000,,,,0.000000,4.000000,4.000000,100.000000,,,,,,,,,,,,,,,,,,,,,,,,,,,,,,,,,
1710116260.183267,46.000000,0.000000,4201.047852,4170.095215,0.000000,2.000000,40.000000,,,,0.000000,4.000000,4.000000,100.000000,,,,,,,,,,,,,,,,,,,,,,,,,,,,,,,,,
1710116260.191127,47.000000,0.000000,4202.000000,4168.666504,0.000000,2.000000,40.000000,,,,0.000000,4.000000,4.000000,100.000000,,,,,,,,,,,,,,,,,,,,,,,,,,,,,,,,,
1710116260.198986,48.000000,0.000000,4201.523926,4171.523926,0.000000,2.000000,40.000000,,,,0.000000,4.000000,4.000000,100.000000,,,,,,,,,,,,,,,,,,,,,,,,,,,,,,,,,
1710116260.206846,49.000000,0.000000,4200.095215,4176.761719,0.000000,2.000000,40.000000,,,,0.000000,4.000000,4.000000,100.000000,,,,,,,,,,,,,,,,,,,,,,,,,,,,,,,,,
1710116260.214808,50.000000,0.000000,4196.285645,4174.380859,0.000000,2.000000,40.000000,,,,0.000000,4.000000,4.000000,100.000000,,,,,,,,,,,1.000000,0.000000,0.000000,,,,,,,,,,,0.541774,0.601556,0.452407,0.193119,0.192346,1.896223,0.316931,0.493609,0.423933,0.282676
1710116260.222671,51.000000,0.000000,4194.856934,4174.380859,0.000000,2.000000,40.000000,,,,0.000000,4.000000,4.000000,100.000000,,,,,,,,,,,,,,,,,,,,,,,,,,,,,,,,,
1710116260.230534,52.000000,0.000000,4198.190430,4180.571289,0.000000,2.000000,40.000000,,,,0.000000,4.000000,4.000000,100.000000,,,,,,,,,,,,,,,,,,,,,,,,,,,,,,,,,
1710116260.238397,53.000000,0.000000,4197.714355,4179.143066,0.000000,2.000000,40.000000,,,,0.000000,4.000000,4.000000,100.000000,,,,,,,,,,,,,,,,,,,,,,,,,,,,,,,,,
1710116260.246259,54.000000,0.000000,4194.856934,4173.904785,0.000000,2.000000,40.000000,,,,0.000000,4.000000,4.000000,100.000000,,,,,,,,,,,,,,,,,,,,,,,,,,,,,,,,,
1710116260.254218,55.000000,0.000000,4197.714355,4177.238281,0.000000,2.000000,40.000000,,,,0.000000,4.000000,4.000000,100.000000,,,,,12.000000,0.000000,0.560135,0.292969,-0.742188,-0.222656,,,,,,,,,,,,,,,,,,,,,,,
1710116260.262076,56.000000,0.000000,4199.143066,4181.047852,0.000000,2.000000,40.000000,,,,0.000000,4.000000,4.000000,100.000000,,,,,,,,,,,,,,,,,,,,,,,,,,,,,,,,,
1710116260.269934,57.000000,0.000000,4197.238281,4181.047852,0.000000,2.000000,40.000000,,,,0.000000,4.000000,4.000000,100.000000,,,,,,,,,,,,,,,,,,,,,,,,,,,,,,,,,
1710116260.277793,58.000000,0.000000,4201.047852,4184.380859,0.000000,2.000000,40.000000,,,,0.000000,4.000000,4.000000,100.000000,,,,,,,,,,,,,,,,,,,,,,,,,,,,,,,,,
1710116260.285651,59.000000,0.000000,4202.476074,4189.619141,0.000000,2.000000,40.000000,,,,0.000000,4.000000,4.000000,100.000000,,,,,,,,,,,,,,,,,,,,,,,,,,,,,,,,,
1710116260.293609,60.000000,0.000000,4196.761719,4190.571289,0.000000,2.000000,40.000000,,,,0.000000,4.000000,4.000000,100.000000,,,,,,,,,,,,,,,,,,,,,,,,,,,,,,,,,
1710116260.301468,61.000000,0.000000,4193.904785,4186.285645,0.000000,2.000000,40.000000,,,,0.000000,4.000000,4.000000,100.000000,,,,,,,,,,,,,,,,,,,,,,,,,,,,,,,,,
1710116260.309327,62.000000,0.000000,4193.904785,4180.095215,0.000000,2.000000,40.000000,,,,0.000000,4.000000,4.000000,100.000000,,,,,,,,,,,,,,,,,,,,,,,,,,,,,,,,,
1710116260.317186,63.000000,0.000000,4188.190430,4182.000000,0.000000,2.000000,40.000000,,,,0.000000,4.000000,4.000000,100.000000,,,,,,,,,,,,,,,,,,,,,,,,,,,,,,,,,
1710116260.325044,64.000000,0.000000,4186.761719,4192.000000,0.000000,2.000000,40.000000,,,,0.000000,4.000000,4.000000,100.000000,,,,,,,,,,,,,,,,,,,,,,,,,,,,,,,,,
1710116260.333009,65.000000,0.000000,4192.000000,4197.714355,0.000000,2.000000,40.000000,,,,0.000000,4.000000,4.000000,100.000000,,,,,,,,,,,,,,,,,,,,,,,,,,,,,,,,,
1710116260.340874,66.000000,0.000000,4194.856934,4195.809570,0.000000,2.000000,40.000000,,,,0.000000,4.000000,4.000000,100.000000,,,,,,,,,,,1.000000,0.000000,0.000000,,,,,,,,,,,0.465647,0.720150,0.454393,0.204244,0.184074,1.834483,0.363847,0.422855,0.405256,0.286631
1710116260.348738,67.000000,0.000000,4195.809570,4194.856934,0.000000,2.000000,40.000000,,,,0.000000,4.000000,4.000000,100.000000,,,,,,,,,,,,,,,,,,,,,,,,,,,,,,,,,
1710116260.356603,68.000000,0.000000,4197.238281,4198.190430,0.000000,2.000000,40.000000,,,,0.000000,4.000000,4.000000,100.000000,,,,,,,,,,,,,,,,,,,,,,,,,,,,,,,,,
1710116260.364468,69.000000,0.000000,4193.904785,4202.000000,0.000000,2.000000,40.000000,,,,0.000000,4.000000,4.000000,100.000000,,,,,,,,,,,,,,,,,,,,,,,,,,,,,,,,,
1710116260.372428,70.000000,0.000000,4192.000000,4205.809570,0.000000,2.000000,40.000000,,,,0.000000,4.000000,4.000000,100.000000,,,,,,,,,,,,,,,,,,,,,,,,,,,,,,,,,
1710116260.380288,71.000000,0.000000,4196.761719,4205.333496,0.000000,2.000000,40.000000,,,,0.000000,4.000000,4.000000,100.000000,,,,,,,,,,,,,,,,,,,,,,,,,,,,,,,,,
1710116260.388148,72.000000,0.000000,4198.666504,4203.904785,0.000000,2.000000,40.000000,,,,0.000000,4.000000,4.000000,100.000000,,,,,,,,,,,,,,,,,,,,,,,,,,,,,,,,,
1710116260.396009,73.000000,0.000000,4193.904785,4211.047852,0.000000,2.000000,40.000000,,,,0.000000,4.000000,4.000000,100.000000,,,,,,,,,,,,,,,,,,,,,,,,,,,,,,,,,
1710116260.403869,74.000000,0.000000,4192.952148,4218.190430,0.000000,2.000000,40.000000,,,,0.000000,4.000000,4.000000,100.000000,,,,,,,,,,,,,,,,,,,,,,,,,,,,,,,,,
1710116260.411827,75.000000,0.000000,4198.666504,4210.095215,0.000000,2.000000,40.000000,,,,0.000000,4.000000,4.000000,100.000000,,,,,13.000000,0.000000,0.558566,0.292969,-0.742188,-0.226563,,,,,,,,,,,,,,,,,,,,,,,
1710116260.419685,76.000000,0.000000,4202.476074,4205.333496,0.000000,2.000000,40.000000,,,,0.000000,4.000000,4.000000,100.000000,,,,,,,,,,,,,,,,,,,,,,,,,,,,,,,,,
1710116260.427543,77.000000,0.000000,4202.476074,4215.333496,0.000000,2.000000,40.000000,,,,0.000000,4.000000,4.000000,100.000000,,,,,,,,,,,,,,,,,,,,,,,,,,,,,,,,,
1710116260.435401,78.000000,0.000000,4204.380859,4219.619141,0.000000,2.000000,40.000000,,,,0.000000,4.000000,4.000000,100.000000,,,,,,,,,,,,,,,,,,,,,,,,,,,,,,,,,
1710116260.443259,79.000000,0.000000,4206.285645,4211.047852,0.000000,2.000000,40.000000,,,,0.000000,4.000000,4.000000,100.000000,,,,,,,,,,,,,,,,,,,,,,,,,,,,,,,,,
1710116260.451217,80.000000,0.000000,4203.428711,4207.238281,0.000000,2.000000,40.000000,,,,0.000000,4.000000,4.000000,100.000000,,,,,,,,,,,,,,,,,,,,,,,,,,,,,,,,,
1710116260.459076,81.000000,0.000000,4201.523926,4207.714355,0.000000,2.000000,40.000000,,,,0.000000,4.000000,4.000000,100.000000,,,,,,,,,,,,,,,,,,,,,,,,,,,,,,,,,
1710116260.466935,82.000000,0.000000,4199.143066,4207.714355,0.000000,2.000000,40.000000,,,,0.000000,4.000000,4.000000,100.000000,1.000000,100.000000,4.000000,4.000000,,,,,,,1.000000,0.000000,0.000000,,,,,,,,,,,0.482486,0.798930,0.423939,0.216241,0.173429,1.736425,0.435509,0.355660,0.401214,0.279684
1710116260.474794,83.000000,0.000000,4194.856934,4214.380859,0.000000,2.000000,40.000000,,,,0.000000,4.000000,4.000000,100.000000,,,,,,,,,,,,,,,,,,,,,,,,,,,,,,,,,
1710116260.482652,84.000000,0.000000,4196.761719,4217.714355,0.000000,2.000000,40.000000,,,,0.000000,4.000000,4.000000,100.000000,,,,,,,,,,,,,,,,,,,,,,,,,,,,,,,,,
1710116260.490612,85.000000,0.000000,4199.619141,4210.571289,0.000000,2.000000,40.000000,,,,0.000000,4.000000,4.000000,100.000000,,,,,,,,,,,,,,,,,,,,,,,,,,,,,,,,,
1710116260.498471,86.000000,0.000000,4193.904785,4208.666504,0.000000,2.000000,40.000000,,,,0.000000,4.000000,4.000000,100.000000,,,,,,,,,,,,,,,,,,,,,,,,,,,,,,,,,
1710116260.506331,87.000000,0.000000,4191.523926,4213.904785,0.000000,2.000000,40.000000,,,,0.000000,4.000000,4.000000,100.000000,,,,,,,,,,,,,,,,,,,,,,,,,,,,,,,,,
1710116260.514190,88.000000,0.000000,4199.619141,4206.761719,0.000000,2.000000,40.000000,,,,0.000000,4.000000,4.000000,100.000000,,,,,,,,,,,,,,,,,,,,,,,,,,,,,,,,,
1710116260.522050,89.000000,0.000000,4199.143066,4193.904785,0.000000,2.000000,40.000000,,,,0.000000,4.000000,4.000000,100.000000,,,,,,,,,,,,,,,,,,,,,,,,,,,,,,,,,
1710116260.530010,90.000000,0.000000,4191.047852,4192.952148,0.000000,2.000000,40.000000,,,,0.000000,4.000000,4.000000,100.000000,,,,,,,,,,,,,,,,,,,,,,,,,,,,,,,,,
1710116260.537870,91.000000,0.000000,4192.952148,4197.714355,0.000000,2.000000,40.000000,,,,0.000000,4.000000,4.000000,100.000000,,,,,,,,,,,,,,,,,,,,,,,,,,,,,,,,,
1710116260.545731,92.000000,0.000000,4197.714355,4201.047852,0.000000,2.000000,40.000000,,,,0.000000,4.000000,4.000000,100.000000,,,,,,,,,,,,,,,,,,,,,,,,,,,,,,,,,
1710116260.553591,93.000000,0.000000,4194.380859,4211.047852,0.000000,2.000000,40.000000,,,,0.000000,4.000000,4.000000,100.000000,,,,,,,,,,,,,,,,,,,,,,,,,,,,,,,,,
1710116260.561452,94.000000,0.000000,4192.952148,4220.095215,0.000000,2.000000,40.000000,,,,0.000000,4.000000,4.000000,100.000000,,,,,,,,,,,,,,,,,,,,,,,,,,,,,,,,,
1710116260.569415,95.000000,0.000000,4197.238281,4215.809570,0.000000,2.000000,40.000000,,,,0.000000,4.000000,4.000000,100.000000,,,,,14.000000,0.000000,0.560135,0.292969,-0.742188,-0.222656,,,,,,,,,,,,,,,,,,,,,,,
1710116260.577279,96.000000,0.000000,4201.047852,4203.904785,0.000000,2.000000,40.000000,,,,0.000000,4.000000,4.000000,100.000000,,,,,,,,,,,,,,,,,,,,,,,,,,,,,,,,,
1710116260.585142,97.000000,0.000000,4202.000000,4193.428711,0.000000,2.000000,40.000000,,,,0.000000,4.000000,4.000000,100.000000,,,,,,,,,,,,,,,,,,,,,,,,,,,,,,,,,
1710116260.593006,98.000000,0.000000,4202.000000,4187.238281,0.000000,2.000000,40.000000,,,,0.000000,4.000000,4.000000,100.000000,,,,,,,,,,,1.000000,0.000000,0.000000,,,,,,,,,,,0.549493,0.809943,0.371025,0.226335,0.163042,1.606059,0.521935,0.316185,0.403420,0.264261
1710116260.600869,99.000000,0.000000,4199.619141,4190.571289,0.000000,2.000000,40.000000,,,,0.000000,4.000000,4.000000,100.000000,,,,,,,,,,,,,,,,,,,,,,,,,,,,,,,,,
1710116260.608828,100.000000,0.000000,4197.238281,4201.523926,0.000000,2.000000,40.000000,,,,0.000000,4.000000,4.000000,100.000000,,,,,,,,,,,,,,,,,,,,,,,,,,,,,,,,,
1710116260.616687,101.000000,0.000000,4199.619141,4208.666504,0.000000,2.000000,40.000000,,,,0.000000,4.000000,4.000000,100.000000,,,,,,,,,,,,,,,,,,,,,,,,,,,,,,,,,
1710116260.624545,102.000000,0.000000,4204.856934,4206.285645,0.000000,2.000000,40.000000,,,,0.000000,4.000000,4.000000,100.000000,,,,,,,,,,,,,,,,,,,,,,,,,,,,,,,,,
1710116260.632404,103.000000,0.000000,4206.285645,4203.428711,0.000000,2.000000,40.000000,,,,0.000000,4.000000,4.000000,100.000000,,,,,,,,,,,,,,,,,,,,,,,,,,,,,,,,,
1710116260.640263,104.000000,0.000000,4204.856934,4204.856934,0.000000,2.000000,40.000000,,,,0.000000,4.000000,4.000000,100.000000,,,,,,,,,,,,,,,,,,,,,,,,,,,,,,,,,
1710116260.648222,105.000000,0.000000,4203.904785,4206.761719,0.000000,2.000000,40.000000,,,,0.000000,4.000000,4.000000,100.000000,,,,,,,,,,,,,,,,,,,,,,,,,,,,,,,,,
1710116260.656082,106.000000,0.000000,4204.380859,4205.809570,0.000000,2.000000,40.000000,,,,0.000000,4.000000,4.000000,100.000000,,,,,,,,,,,,,,,,,,,,,,,,,,,,,,,,,
1710116260.663941,107.000000,0.000000,4202.952148,4205.333496,0.000000,2.000000,40.000000,,,,0.000000,4.000000,4.000000,100.000000,,,,,,,,,,,,,,,,,,,,,,,,,,,,,,,,,
1710116260.671801,108.000000,0.000000,4198.190430,4205.809570,0.000000,2.000000,40.000000,,,,0.000000,4.000000,4.000000,100.000000,,,,,,,,,,,,,,,,,,,,,,,,,,,,,,,,,
1710116260.679660,109.000000,0.000000,4192.952148,4203.904785,0.000000,2.000000,40.000000,,,,0.000000,4.000000,4.000000,100.000000,,,,,,,,,,,,,,,,,,,,,,,,,,,,,,,,,
1710116260.687618,110.000000,0.000000,4195.333496,4200.571289,0.000000,2.000000,40.000000,,,,0.000000,4.000000,4.000000,100.000000,,,,,,,,,,,,,,,,,,,,,,,,,,,,,,,,,
1710116260.695475,111.000000,0.000000,4201.047852,4200.095215,0.000000,2.000000,40.000000,,,,0.000000,4.000000,4.000000,100.000000,,,,,,,,,,,,,,,,,,,,,,,,,,,,,,,,,
1710116260.703333,112.000000,0.000000,4198.190430,4203.428711,0.000000,2.000000,40.000000,,,,0.000000,4.000000,4.000000,100.000000,,,,,,,,,,,,,,,,,,,,,,,,,,,,,,,,,
1710116260.711190,113.000000,0.000000,4188.190430,4201.047852,0.000000,2.000000,40.000000,,,,0.000000,4.000000,4.000000,100.000000,,,,,,,,,,,,,,,,,,,,,,,,,,,,,,,,,
1710116260.719048,114.000000,0.000000,4181.523926,4189.143066,0.000000,2.000000,40.000000,,,,0.000000,4.000000,4.000000,100.000000,,,,,,,,,,,1.000000,0.000000,0.000000,,,,,,,,,,,0.616242,0.744772,0.315710,0.229053,0.152834,1.482706,0.599488,0.317139,0.401681,0.243791
1710116260.727006,115.000000,0.000000,4178.666504,4182.000000,0.000000,2.000000,40.000000,,,,0.000000,4.000000,4.000000,100.000000,,,,,15.000000,0.000000,0.556500,0.296875,-0.742188,-0.226563,,,,,,,,,,,,,,,,,,,,,,,
1710116260.734864,116.000000,0.000000,4178.190430,4181.523926,0.000000,2.000000,40.000000,,,,0.000000,4.000000,4.000000,100.000000,,,,,,,,,,,,,,,,,,,,,,,,,,,,,,,,,
1710116260.742722,117.000000,0.000000,4175.809570,4172.000000,0.000000,2.000000,40.000000,,,,0.000000,4.000000,4.000000,100.000000,,,,,,,,,,,,,,,,,,,,,,,,,,,,,,,,,
1710116260.750580,118.000000,0.000000,4170.095215,4165.809570,0.000000,2.000000,40.000000,,,,0.000000,4.000000,4.000000,100.000000,,,,,,,,,,,,,,,,,,,,,,,,,,,,,,,,,
1710116260.758438,119.000000,0.000000,4169.143066,4175.809570,0.000000,2.000000,40.000000,,,,0.000000,4.000000,4.000000,100.000000,,,,,,,,,,,,,,,,,,,,,,,,,,,,,,,,,
1710116260.766397,120.000000,0.000000,4176.761719,4179.143066,0.000000,2.000000,40.000000,,,,0.000000,4.000000,4.000000,100.000000,,,,,,,,,,,,,,,,,,,,,,,,,,,,,,,,,
1710116260.774255,121.000000,0.000000,4183.428711,4168.190430,0.000000,2.000000,40.000000,,,,0.000000,4.000000,4.000000,100.000000,,,,,,,,,,,,,,,,,,,,,,,,,,,,,,,,,
1710116260.782114,122.000000,0.000000,4183.428711,4166.761719,0.000000,2.000000,40.000000,,,,0.000000,4.000000,4.000000,100.000000,,,,,,,,,,,,,,,,,,,,,,,,,,,,,,,,,
1710116260.789973,123.000000,0.000000,4183.428711,4172.476074,0.000000,2.000000,40.000000,,,,0.000000,4.000000,4.000000,100.000000,,,,,,,,,,,,,,,,,,,,,,,,,,,,,,,,,
1710116260.797832,124.000000,0.000000,4184.856934,4168.190430,0.000000,2.000000,40.000000,,,,0.000000,4.000000,4.000000,100.000000,,,,,,,,,,,,,,,,,,,,,,,,,,,,,,,,,
1710116260.805791,125.000000,0.000000,4184.380859,4164.380859,0.000000,2.000000,40.000000,,,,0.000000,4.000000,4.000000,100.000000,,,,,,,,,,,,,,,,,,,,,,,,,,,,,,,,,
1710116260.813651,126.000000,0.000000,4182.952148,4165.809570,0.000000,2.000000,40.000000,,,,0.000000,4.000000,4.000000,100.000000,,,,,,,,,,,,,,,,,,,,,,,,,,,,,,,,,
1710116260.821511,127.000000,0.000000,4186.285645,4166.761719,0.000000,2.000000,40.000000,,,,0.000000,4.000000,4.000000,100.000000,,,,,,,,,,,,,,,,,,,,,,,,,,,,,,,,,
1710116260.829370,0.000000,0.000000,4191.523926,4171.523926,0.000000,2.000000,40.000000,,,,0.000000,4.000000,4.000000,100.000000,,,,,,,,,,,,,,,,,,,,,,,,,,,,,,,,,
1710116260.837230,1.000000,0.000000,4193.904785,4178.666504,0.000000,2.000000,40.000000,,,,0.000000,4.000000,4.000000,100.000000,,,,,,,,,,,,,,,,,,,,,,,,,,,,,,,,,
1710116260.845187,2.000000,0.000000,4191.523926,4179.619141,0.000000,2.000000,40.000000,,,,0.000000,4.000000,4.000000,100.000000,,,,,,,,,,,1.000000,0.000000,0.000000,,,,,,,,,,,0.650665,0.620369,0.273921,0.218530,0.141308,1.327838,0.639119,0.355908,0.392962,0.221680
1710116260.853045,3.000000,0.000000,4184.856934,4176.761719,0.000000,2.000000,40.000000,,,,0.000000,4.000000,4.000000,100.000000,,,,,,,,,,,,,,,,,,,,,,,,,,,,,,,,,
1710116260.860903,4.000000,0.000000,4181.047852,4175.809570,0.000000,2.000000,40.000000,,,,0.000000,4.000000,4.000000,100.000000,,,,,,,,,,,,,,,,,,,,,,,,,,,,,,,,,
1710116260.868760,5.000000,0.000000,4185.333496,4177.238281,0.000000,2.000000,40.000000,,,,0.000000,4.000000,4.000000,100.000000,,,,,,,,,,,,,,,,,,,,,,,,,,,,,,,,,
1710116260.876618,6.000000,0.000000,4187.714355,4179.143066,0.000000,2.000000,40.000000,,,,0.000000,4.000000,4.000000,100.000000,,,,,,,,,,,,,,,,,,,,,,,,,,,,,,,,,
1710116260.884576,7.000000,0.000000,4184.380859,4175.333496,0.000000,2.000000,40.000000,,,,0.000000,4.000000,4.000000,100.000000,,,,,0.000000,0.000000,0.556500,0.296875,-0.742188,-0.226563,,,,,,,,,,,,,,,,,,,,,,,
1710116260.892434,8.000000,0.000000,4184.856934,4171.523926,0.000000,2.000000,40.000000,,,,0.000000,4.000000,4.000000,100.000000,,,,,,,,,,,,,,,,,,,,,,,,,,,,,,,,,
1710116260.900292,9.000000,0.000000,4190.571289,4179.619141,0.000000,2.000000,40.000000,,,,0.000000,4.000000,4.000000,100.000000,,,,,,,,,,,,,,,,,,,,,,,,,,,,,,,,,
1710116260.908151,10.000000,0.000000,4193.904785,4187.238281,0.000000,2.000000,40.000000,,,,0.000000,4.000000,4.000000,100.000000,,,,,,,,,,,,,,,,,,,,,,,,,,,,,,,,,
1710116260.916009,11.000000,0.000000,4194.856934,4183.904785,0.000000,2.000000,40.000000,,,,0.000000,4.000000,4.000000,100.000000,,,,,,,,,,,,,,,,,,,,,,,,,,,,,,,,,
1710116260.923968,12.000000,0.000000,4195.809570,4182.476074,0.000000,2.000000,40.000000,,,,0.000000,4.000000,4.000000,100.000000,,,,,,,,,,,,,,,,,,,,,,,,,,,,,,,,,
1710116260.931826,13.000000,0.000000,4195.333496,4184.856934,0.000000,2.000000,40.000000,,,,0.000000,4.000000,4.000000,100.000000,,,,,,,,,,,,,,,,,,,,,,,,,,,,,,,,,
1710116260.939685,14.000000,0.000000,4198.666504,4185.809570,0.000000,2.000000,40.000000,,,,0.000000,4.000000,4.000000,100.000000,,,,,,,,,,,,,,,,,,,,,,,,,,,,,,,,,
1710116260.947544,15.000000,0.000000,4203.428711,4193.904785,0.000000,2.000000,40.000000,,,,0.000000,4.000000,4.000000,100.000000,,,,,,,,,,,,,,,,,,,,,,,,,,,,,,,,,
1710116260.955403,16.000000,0.000000,4200.571289,4200.571289,0.000000,2.000000,40.000000,,,,0.000000,4.000000,4.000000,100.000000,,,,,,,,,,,,,,,,,,,,,,,,,,,,,,,,,
1710116260.963362,17.000000,0.000000,4198.190430,4189.143066,0.000000,2.000000,40.000000,,,,0.000000,4.000000,4.000000,100.000000,,,,,,,,,,,,,,,,,,,,,,,,,,,,,,,,,
1710116260.971221,18.000000,0.000000,4206.285645,4178.666504,0.000000,2.000000,40.000000,,,,0.000000,4.000000,4.000000,100.000000,1.000000,100.000000,4.000000,4.000000,,,,,,,1.000000,0.000000,0.000000,,,,,,,,,,,0.657612,0.470708,0.252243,0.193195,0.127823,1.177844,0.622958,0.430750,0.379769,0.200877
1710116260.979081,19.000000,0.000000,4212.476074,4188.190430,0.000000,2.000000,40.000000,,,,0.000000,4.000000,4.000000,100.000000,,,,,,,,,,,,,,,,,,,,,,,,,,,,,,,,,
1710116260.986940,20.000000,0.000000,4210.571289,4203.428711,0.000000,2.000000,40.000000,,,,0.000000,4.000000,4.000000,100.000000,,,,,,,,,,,,,,,,,,,,,,,,,,,,,,,,,
1710116260.994800,21.000000,0.000000,4212.000000,4210.571289,0.000000,2.000000,40.000000,,,,0.000000,4.000000,4.000000,100.000000,,,,,,,,,,,,,,,,,,,,,,,,,,,,,,,,,
1710116261.002757,22.000000,0.000000,4215.809570,4208.190430,0.000000,2.000000,40.000000,,,,0.000000,4.000000,4.000000,100.000000,,,,,,,,,,,,,,,,,,,,,,,,,,,,,,,,,
1710116261.010615,23.000000,0.000000,4216.285645,4202.476074,0.000000,2.000000,40.000000,,,,0.000000,4.000000,4.000000,100.000000,,,,,,,,,,,,,,,,,,,,,,,,,,,,,,,,,
1710116261.018472,24.000000,0.000000,4217.714355,4205.809570,0.000000,2.000000,40.000000,,,,0.000000,4.000000,4.000000,100.000000,,,,,,,,,,,,,,,,,,,,,,,,,,,,,,,,,
1710116261.026330,25.000000,0.000000,4216.761719,4215.333496,0.000000,2.000000,40.000000,,,,0.000000,4.000000,4.000000,100.000000,,,,,,,,,,,,,,,,,,,,,,,,,,,,,,,,,
1710116261.034188,26.000000,0.000000,4208.190430,4214.856934,0.000000,2.000000,40.000000,,,,0.000000,4.000000,4.000000,100.000000,,,,,,,,,,,,,,,,,,,,,,,,,,,,,,,,,
1710116261.042146,27.000000,0.000000,4206.761719,4208.190430,0.000000,2.000000,40.000000,,,,0.000000,4.000000,4.000000,100.000000,,,,,1.000000,0.000000,0.556500,0.296875,-0.742188,-0.226563,,,,,,,,,,,,,,,,,,,,,,,
1710116261.050004,28.000000,0.000000,4213.428711,4205.809570,0.000000,2.000000,40.000000,,,,0.000000,4.000000,4.000000,100.000000,,,,,,,,,,,,,,,,,,,,,,,,,,,,,,,,,
1710116261.057862,29.000000,0.000000,4214.380859,4204.856934,0.000000,2.000000,40.000000,,,,0.000000,4.000000,4.000000,100.000000,,,,,,,,,,,,,,,,,,,,,,,,,,,,,,,,,
1710116261.065721,30.000000,0.000000,4214.380859,4203.428711,0.000000,2.000000,40.000000,,,,0.000000,4.000000,4.000000,100.000000,,,,,,,,,,,,,,,,,,,,,,,,,,,,,,,,,
1710116261.073579,31.000000,0.000000,4218.666504,4203.428711,0.000000,2.000000,40.000000,,,,0.000000,4.000000,4.000000,100.000000,,,,,,,,,,,,,,,,,,,,,,,,,,,,,,,,,
1710116261.081543,32.000000,0.000000,4215.333496,4204.380859,0.000000,2.000000,40.000000,,,,0.000000,4.000000,4.000000,100.000000,,,,,,,,,,,,,,,,,,,,,,,,,,,,,,,,,
1710116261.089407,33.000000,0.000000,4210.571289,4206.285645,0.000000,2.000000,40.000000,,,,0.000000,4.000000,4.000000,100.000000,,,,,,,,,,,,,,,,,,,,,,,,,,,,,,,,,
1710116261.097271,34.000000,0.000000,4214.856934,4207.238281,0.000000,2.000000,40.000000,,,,0.000000,4.000000,4.000000,100.000000,,,,,,,,,,,1.000000,0.000000,0.000000,,,,,,,,,,,0.689512,0.333748,0.249361,0.158079,0.113619,1.046325,0.554264,0.541381,0.365786,0.183282
1710116261.105136,35.000000,0.000000,4217.238281,4206.285645,0.000000,2.000000,40.000000,,,,0.000000,4.000000,4.000000,100.000000,,,,,,,,,,,,,,,,,,,,,,,,,,,,,,,,,
1710116261.113000,36.000000,0.000000,4213.428711,4207.238281,0.000000,2.000000,40.000000,,,,0.000000,4.000000,4.000000,100.000000,,,,,,,,,,,,,,,,,,,,,,,,,,,,,,,,,
1710116261.120960,37.000000,0.000000,4213.428711,4209.619141,0.000000,2.000000,40.000000,,,,0.000000,4.000000,4.000000,100.000000,,,,,,,,,,,,,,,,,,,,,,,,,,,,,,,,,
1710116261.128819,38.000000,0.000000,4213.428711,4213.904785,0.000000,2.000000,40.000000,,,,0.000000,4.000000,4.000000,100.000000,,,,,,,,,,,,,,,,,,,,,,,,,,,,,,,,,
1710116261.136679,39.000000,0.000000,4210.571289,4222.000000,0.000000,2.000000,40.000000,,,,0.000000,4.000000,4.000000,100.000000,,,,,,,,,,,,,,,,,,,,,,,,,,,,,,,,,
1710116261.144539,40.000000,0.000000,4211.047852,4226.285645,0.000000,2.000000,40.000000,,,,0.000000,4.000000,4.000000,100.000000,,,,,,,,,,,,,,,,,,,,,,,,,,,,,,,,,
1710116261.152398,41.000000,0.000000,4210.095215,4220.571289,0.000000,2.000000,40.000000,,,,0.000000,4.000000,4.000000,100.000000,,,,,,,,,,,,,,,,,,,,,,,,,,,,,,,,,
1710116261.160356,42.000000,0.000000,4204.380859,4218.190430,0.000000,2.000000,40.000000,,,,0.000000,4.000000,4.000000,100.000000,,,,,,,,,,,,,,,,,,,,,,,,,,,,,,,,,
1710116261.168213,43.000000,0.000000,4205.809570,4225.809570,0.000000,2.000000,40.000000,,,,0.000000,4.000000,4.000000,100.000000,,,,,,,,,,,,,,,,,,,,,,,,,,,,,,,,,
1710116261.176071,44.000000,0.000000,4210.571289,4230.095215,0.000000,2.000000,40.000000,,,,0.000000,4.000000,4.000000,100.000000,,,,,,,,,,,,,,,,,,,,,,,,,,,,,,,,,
1710116261.183929,45.000000,0.000000,4205.333496,4227.238281,0.000000,2.000000,40.000000,,,,0.000000,4.000000,4.000000,100.000000,,,,,,,,,,,,,,,,,,,,,,,,,,,,,,,,,
1710116261.191786,46.000000,0.000000,4200.571289,4223.904785,0.000000,2.000000,40.000000,,,,0.000000,4.000000,4.000000,100.000000,,,,,,,,,,,,,,,,,,,,,,,,,,,,,,,,,
1710116261.199744,47.000000,0.000000,4206.761719,4222.000000,0.000000,2.000000,40.000000,,,,0.000000,4.000000,4.000000,100.000000,,,,,2.000000,0.000000,0.561672,0.296875,-0.738281,-0.226563,,,,,,,,,,,,,,,,,,,,,,,
1710116261.207603,48.000000,0.000000,4211.523926,4222.476074,0.000000,2.000000,40.000000,,,,0.000000,4.000000,4.000000,100.000000,,,,,,,,,,,,,,,,,,,,,,,,,,,,,,,,,
1710116261.215461,49.000000,0.000000,4208.666504,4227.714355,0.000000,2.000000,40.000000,,,,0.000000,4.000000,4.000000,100.000000,,,,,,,,,,,,,,,,,,,,,,,,,,,,,,,,,
1710116261.223319,50.000000,0.000000,4204.856934,4228.190430,0.000000,2.000000,40.000000,,,,0.000000,4.000000,4.000000,100.000000,,,,,,,,,,,1.000000,0.000000,0.000000,,,,,,,,,,,0.778555,0.236425,0.258010,0.122866,0.101147,1.000966,0.453606,0.675936,0.353985,0.170247
1710116261.231177,51.000000,0.000000,4204.380859,4217.238281,0.000000,2.000000,40.000000,,,,0.000000,4.000000,4.000000,100.000000,,,,,,,,,,,,,,,,,,,,,,,,,,,,,,,,,
1710116261.239136,52.000000,0.000000,4202.476074,4214.380859,0.000000,2.000000,40.000000,,,,0.000000,4.000000,4.000000,100.000000,,,,,,,,,,,,,,,,,,,,,,,,,,,,,,,,,
1710116261.246995,53.000000,0.000000,4202.952148,4232.476074,0.000000,2.000000,40.000000,,,,0.000000,4.000000,4.000000,100.000000,,,,,,,,,,,,,,,,,,,,,,,,,,,,,,,,,
1710116261.254854,54.000000,0.000000,4208.666504,4246.285645,0.000000,2.000000,40.000000,,,,0.000000,4.000000,4.000000,100.000000,,,,,,,,,,,,,,,,,,,,,,,,,,,,,,,,,
1710116261.262713,55.000000,0.000000,4211.047852,4237.714355,0.000000,2.000000,40.000000,,,,0.000000,4.000000,4.000000,100.000000,,,,,,,,,,,,,,,,,,,,,,,,,,,,,,,,,
1710116261.270572,56.000000,0.000000,4204.856934,4229.619141,0.000000,2.000000,40.000000,,,,0.000000,4.000000,4.000000,100.000000,,,,,,,,,,,,,,,,,,,,,,,,,,,,,,,,,
1710116261.278537,57.000000,0.000000,4203.428711,4232.000000,0.000000,2.000000,40.000000,,,,0.000000,4.000000,4.000000,100.000000,,,,,,,,,,,,,,,,,,,,,,,,,,,,,,,,,
1710116261.286402,58.000000,0.000000,4209.143066,4231.047852,0.000000,2.000000,40.000000,,,,0.000000,4.000000,4.000000,100.000000,,,,,,,,,,,,,,,,,,,,,,,,,,,,,,,,,
1710116261.294267,59.000000,0.000000,4209.143066,4230.571289,0.000000,2.000000,40.000000,,,,0.000000,4.000000,4.000000,100.000000,,,,,,,,,,,,,,,,,,,,,,,,,,,,,,,,,
1710116261.302132,60.000000,0.000000,4205.809570,4236.285645,0.000000,2.000000,40.000000,,,,0.000000,4.000000,4.000000,100.000000,,,,,,,,,,,,,,,,,,,,,,,,,,,,,,,,,
1710116261.309997,61.000000,0.000000,4206.285645,4234.856934,0.000000,2.000000,40.000000,,,,0.000000,4.000000,4.000000,100.000000,,,,,,,,,,,,,,,,,,,,,,,,,,,,,,,,,
1710116261.317957,62.000000,0.000000,4207.238281,4232.952148,0.000000,2.000000,40.000000,,,,0.000000,4.000000,4.000000,100.000000,,,,,,,,,,,,,,,,,,,,,,,,,,,,,,,,,
1710116261.325817,63.000000,0.000000,4207.714355,4241.047852,0.000000,2.000000,40.000000,,,,0.000000,4.000000,4.000000,100.000000,,,,,,,,,,,,,,,,,,,,,,,,,,,,,,,,,
1710116261.333677,64.000000,0.000000,4211.523926,4242.476074,0.000000,2.000000,40.000000,,,,0.000000,4.000000,4.000000,100.000000,,,,,,,,,,,,,,,,,,,,,,,,,,,,,,,,,
1710116261.341538,65.000000,0.000000,4215.333496,4234.380859,0.000000,2.000000,40.000000,,,,0.000000,4.000000,4.000000,100.000000,,,,,,,,,,,,,,,,,,,,,,,,,,,,,,,,,
1710116261.349398,66.000000,0.000000,4214.856934,4231.523926,0.000000,2.000000,40.000000,,,,0.000000,4.000000,4.000000,100.000000,,,,,,,,,,,1.000000,0.000000,0.000000,,,,,,,,,,,0.933955,0.185400,0.268095,0.097260,0.092485,1.039360,0.356631,0.807923,0.346519,0.162390
1710116261.357356,67.000000,0.000000,4210.571289,4229.619141,0.000000,2.000000,40.000000,,,,0.000000,4.000000,4.000000,100.000000,,,,,3.000000,0.000000,0.561672,0.296875,-0.738281,-0.226563,,,,,,,,,,,,,,,,,,,,,,,
1710116261.365214,68.000000,0.000000,4206.761719,4223.904785,0.000000,2.000000,40.000000,,,,0.000000,4.000000,4.000000,100.000000,,,,,,,,,,,,,,,,,,,,,,,,,,,,,,,,,
1710116261.373072,69.000000,0.000000,4206.285645,4227.238281,0.000000,2.000000,40.000000,,,,0.000000,4.000000,4.000000,100.000000,,,,,,,,,,,,,,,,,,,,,,,,,,,,,,,,,
1710116261.380931,70.000000,0.000000,4204.856934,4233.904785,0.000000,2.000000,40.000000,,,,0.000000,4.000000,4.000000,100.000000,,,,,,,,,,,,,,,,,,,,,,,,,,,,,,,,,
1710116261.388789,71.000000,0.000000,4204.856934,4231.047852,0.000000,2.000000,40.000000,,,,0.000000,4.000000,4.000000,100.000000,,,,,,,,,,,,,,,,,,,,,,,,,,,,,,,,,
1710116261.396748,72.000000,0.000000,4210.095215,4226.761719,0.000000,2.000000,40.000000,,,,0.000000,4.000000,4.000000,100.000000,,,,,,,,,,,,,,,,,,,,,,,,,,,,,,,,,
1710116261.404607,73.000000,0.000000,4212.952148,4226.285645,0.000000,2.000000,40.000000,,,,0.000000,4.000000,4.000000,100.000000,,,,,,,,,,,,,,,,,,,,,,,,,,,,,,,,,
1710116261.412466,74.000000,0.000000,4210.571289,4224.380859,0.000000,2.000000,40.000000,,,,0.000000,4.000000,4.000000,100.000000,,,,,,,,,,,,,,,,,,,,,,,,,,,,,,,,,
1710116261.420325,75.000000,0.000000,4205.809570,4226.761719,0.000000,2.000000,40.000000,,,,0.000000,4.000000,4.000000,100.000000,,,,,,,,,,,,,,,,,,,,,,,,,,,,,,,,,
1710116261.428184,76.000000,0.000000,4201.523926,4239.143066,0.000000,2.000000,40.000000,,,,0.000000,4.000000,4.000000,100.000000,,,,,,,,,,,,,,,,,,,,,,,,,,,,,,,,,
1710116261.436143,77.000000,0.000000,4203.904785,4247.714355,0.000000,2.000000,40.000000,,,,0.000000,4.000000,4.000000,100.000000,,,,,,,,,,,,,,,,,,,,,,,,,,,,,,,,,
1710116261.444003,78.000000,0.000000,4211.523926,4240.571289,0.000000,2.000000,40.000000,,,,0.000000,4.000000,4.000000,100.000000,,,,,,,,,,,,,,,,,,,,,,,,,,,,,,,,,
1710116261.451863,79.000000,0.000000,4207.714355,4227.714355,0.000000,2.000000,40.000000,,,,0.000000,4.000000,4.000000,100.000000,,,,,,,,,,,,,,,,,,,,,,,,,,,,,,,,,
1710116261.459723,80.000000,0.000000,4199.619141,4222.000000,0.000000,2.000000,40.000000,,,,0.000000,4.000000,4.000000,100.000000,,,,,,,,,,,,,,,,,,,,,,,,,,,,,,,,,
1710116261.467582,81.000000,0.000000,4204.380859,4225.809570,0.000000,2.000000,40.000000,,,,0.000000,4.000000,4.000000,100.000000,,,,,,,,,,,,,,,,,,,,,,,,,,,,,,,,,
1710116261.475540,82.000000,0.000000,4211.523926,4234.856934,0.000000,2.000000,40.000000,,,,0.000000,4.000000,4.000000,100.000000,1.000000,100.000000,4.000000,4.000000,,,,,,,1.000000,0.000000,0.000000,,,,,,,,,,,1.107304,0.170574,0.271867,0.085446,0.087998,1.142245,0.292130,0.902504,0.344319,0.160630
1710116261.483398,83.000000,0.000000,4210.095215,4239.143066,0.000000,2.000000,40.000000,,,,0.000000,4.000000,4.000000,100.000000,,,,,,,,,,,,,,,,,,,,,,,,,,,,,,,,,
1710116261.491256,84.000000,0.000000,4212.476074,4233.428711,0.000000,2.000000,40.000000,,,,0.000000,4.000000,4.000000,100.000000,,,,,,,,,,,,,,,,,,,,,,,,,,,,,,,,,
1710116261.499113,85.000000,0.000000,4213.904785,4231.523926,0.000000,2.000000,40.000000,,,,0.000000,4.000000,4.000000,100.000000,,,,,,,,,,,,,,,,,,,,,,,,,,,,,,,,,
1710116261.506971,86.000000,0.000000,4208.190430,4238.190430,0.000000,2.000000,40.000000,,,,0.000000,4.000000,4.000000,100.000000,,,,,,,,,,,,,,,,,,,,,,,,,,,,,,,,,
1710116261.514936,87.000000,0.000000,4210.571289,4240.095215,0.000000,2.000000,40.000000,,,,0.000000,4.000000,4.000000,100.000000,,,,,4.000000,0.000000,0.561672,0.296875,-0.738281,-0.226563,,,,,,,,,,,,,,,,,,,,,,,
1710116261.522801,88.000000,0.000000,4216.285645,4238.190430,0.000000,2.000000,40.000000,,,,0.000000,4.000000,4.000000,100.000000,,,,,,,,,,,,,,,,,,,,,,,,,,,,,,,,,
1710116261.530667,89.000000,0.000000,4209.143066,4243.904785,0.000000,2.000000,40.000000,,,,0.000000,4.000000,4.000000,100.000000,,,,,,,,,,,,,,,,,,,,,,,,,,,,,,,,,
1710116261.538532,90.000000,0.000000,4207.238281,4249.143066,0.000000,2.000000,40.000000,,,,0.000000,4.000000,4.000000,100.000000,,,,,,,,,,,,,,,,,,,,,,,,,,,,,,,,,
1710116261.546397,91.000000,0.000000,4219.619141,4247.714355,0.000000,2.000000,40.000000,,,,0.000000,4.000000,4.000000,100.000000,,,,,,,,,,,,,,,,,,,,,,,,,,,,,,,,,
1710116261.554357,92.000000,0.000000,4222.000000,4251.047852,0.000000,2.000000,40.000000,,,,0.000000,4.000000,4.000000,100.000000,,,,,,,,,,,,,,,,,,,,,,,,,,,,,,,,,
1710116261.562218,93.000000,0.000000,4212.952148,4255.333496,0.000000,2.000000,40.000000,,,,0.000000,4.000000,4.000000,100.000000,,,,,,,,,,,,,,,,,,,,,,,,,,,,,,,,,
1710116261.570078,94.000000,0.000000,4210.571289,4252.476074,0.000000,2.000000,40.000000,,,,0.000000,4.000000,4.000000,100.000000,,,,,,,,,,,,,,,,,,,,,,,,,,,,,,,,,
1710116261.577939,95.000000,0.000000,4210.095215,4252.952148,0.000000,2.000000,40.000000,,,,0.000000,4.000000,4.000000,100.000000,,,,,,,,,,,,,,,,,,,,,,,,,,,,,,,,,
1710116261.585799,96.000000,0.000000,4204.856934,4254.856934,0.000000,2.000000,40.000000,,,,0.000000,4.000000,4.000000,100.000000,,,,,,,,,,,,,,,,,,,,,,,,,,,,,,,,,
1710116261.593756,97.000000,0.000000,4201.523926,4249.619141,0.000000,2.000000,40.000000,,,,0.000000,4.000000,4.000000,100.000000,,,,,,,,,,,,,,,,,,,,,,,,,,,,,,,,,
1710116261.601613,98.000000,0.000000,4200.571289,4248.190430,0.000000,2.000000,40.000000,,,,0.000000,4.000000,4.000000,100.000000,,,,,,,,,,,1.000000,0.000000,0.000000,,,,,,,,,,,1.227220,0.172021,0.266591,0.085463,0.086597,1.257550,0.265544,0.927427,0.346975,0.165532
1710116261.609470,99.000000,0.000000,4202.476074,4251.047852,0.000000,2.000000,40.000000,,,,0.000000,4.000000,4.000000,100.000000,,,,,,,,,,,,,,,,,,,,,,,,,,,,,,,,,
1710116261.617327,100.000000,0.000000,4209.619141,4246.285645,0.000000,2.000000,40.000000,,,,0.000000,4.000000,4.000000,100.000000,,,,,,,,,,,,,,,,,,,,,,,,,,,,,,,,,
1710116261.625184,101.000000,0.000000,4211.523926,4241.047852,0.000000,2.000000,40.000000,,,,0.000000,4.000000,4.000000,100.000000,,,,,,,,,,,,,,,,,,,,,,,,,,,,,,,,,
1710116261.633142,102.000000,0.000000,4204.380859,4243.428711,0.000000,2.000000,40.000000,,,,0.000000,4.000000,4.000000,100.000000,,,,,,,,,,,,,,,,,,,,,,,,,,,,,,,,,
1710116261.640999,103.000000,0.000000,4200.095215,4243.428711,0.000000,2.000000,40.000000,,,,0.000000,4.000000,4.000000,100.000000,,,,,,,,,,,,,,,,,,,,,,,,,,,,,,,,,
1710116261.648857,104.000000,0.000000,4201.523926,4242.000000,0.000000,2.000000,40.000000,,,,0.000000,4.000000,4.000000,100.000000,,,,,,,,,,,,,,,,,,,,,,,,,,,,,,,,,
1710116261.656714,105.000000,0.000000,4198.666504,4247.714355,0.000000,2.000000,40.000000,,,,0.000000,4.000000,4.000000,100.000000,,,,,,,,,,,,,,,,,,,,,,,,,,,,,,,,,
1710116261.664572,106.000000,0.000000,4194.856934,4252.000000,0.000000,2.000000,40.000000,,,,0.000000,4.000000,4.000000,100.000000,,,,,,,,,,,,,,,,,,,,,,,,,,,,,,,,,
1710116261.672530,107.000000,0.000000,4198.666504,4249.143066,0.000000,2.000000,40.000000,,,,0.000000,4.000000,4.000000,100.000000,,,,,5.000000,0.000000,0.561672,0.296875,-0.738281,-0.226563,,,,,,,,,,,,,,,,,,,,,,,
1710116261.680388,108.000000,0.000000,4206.761719,4243.428711,0.000000,2.000000,40.000000,,,,0.000000,4.000000,4.000000,100.000000,,,,,,,,,,,,,,,,,,,,,,,,,,,,,,,,,
1710116261.688247,109.000000,0.000000,4209.143066,4235.809570,0.000000,2.000000,40.000000,,,,0.000000,4.000000,4.000000,100.000000,,,,,,,,,,,,,,,,,,,,,,,,,,,,,,,,,
1710116261.696105,110.000000,0.000000,4205.333496,4230.095215,0.000000,2.000000,40.000000,,,,0.000000,4.000000,4.000000,100.000000,,,,,,,,,,,,,,,,,,,,,,,,,,,,,,,,,
1710116261.703963,111.000000,0.000000,4204.856934,4231.523926,0.000000,2.000000,40.000000,,,,0.000000,4.000000,4.000000,100.000000,,,,,,,,,,,,,,,,,,,,,,,,,,,,,,,,,
1710116261.711922,112.000000,0.000000,4207.714355,4234.380859,0.000000,2.000000,40.000000,,,,0.000000,4.000000,4.000000,100.000000,,,,,,,,,,,,,,,,,,,,,,,,,,,,,,,,,
1710116261.719781,113.000000,0.000000,4205.333496,4232.952148,0.000000,2.000000,40.000000,,,,0.000000,4.000000,4.000000,100.000000,,,,,,,,,,,,,,,,,,,,,,,,,,,,,,,,,
1710116261.727640,114.000000,0.000000,4197.714355,4235.809570,0.000000,2.000000,40.000000,,,,0.000000,4.000000,4.000000,100.000000,,,,,,,,,,,1.000000,0.000000,0.000000,,,,,,,,,,,1.234743,0.171453,0.253145,0.091048,0.087023,1.301584,0.266456,0.868339,0.354894,0.175769
1710116261.735499,115.000000,0.000000,4195.809570,4242.476074,0.000000,2.000000,40.000000,,,,0.000000,4.000000,4.000000,100.000000,,,,,,,,,,,,,,,,,,,,,,,,,,,,,,,,,
1710116261.743358,116.000000,0.000000,4201.523926,4244.856934,0.000000,2.000000,40.000000,,,,0.000000,4.000000,4.000000,100.000000,,,,,,,,,,,,,,,,,,,,,,,,,,,,,,,,,
1710116261.751315,117.000000,0.000000,4205.809570,4239.619141,0.000000,2.000000,40.000000,,,,0.000000,4.000000,4.000000,100.000000,,,,,,,,,,,,,,,,,,,,,,,,,,,,,,,,,
1710116261.759172,118.000000,0.000000,4204.380859,4233.904785,0.000000,2.000000,40.000000,,,,0.000000,4.000000,4.000000,100.000000,,,,,,,,,,,,,,,,,,,,,,,,,,,,,,,,,
1710116261.767029,119.000000,0.000000,4197.238281,4235.333496,0.000000,2.000000,40.000000,,,,0.000000,4.000000,4.000000,100.000000,,,,,,,,,,,,,,,,,,,,,,,,,,,,,,,,,
1710116261.774886,120.000000,0.000000,4192.000000,4237.238281,0.000000,2.000000,40.000000,,,,0.000000,4.000000,4.000000,100.000000,,,,,,,,,,,,,,,,,,,,,,,,,,,,,,,,,
1710116261.782744,121.000000,0.000000,4193.428711,4229.619141,0.000000,2.000000,40.000000,,,,0.000000,4.000000,4.000000,100.000000,,,,,,,,,,,,,,,,,,,,,,,,,,,,,,,,,
1710116261.790701,122.000000,0.000000,4195.809570,4222.476074,0.000000,2.000000,40.000000,,,,0.000000,4.000000,4.000000,100.000000,,,,,,,,,,,,,,,,,,,,,,,,,,,,,,,,,
1710116261.798559,123.000000,0.000000,4192.000000,4222.000000,0.000000,2.000000,40.000000,,,,0.000000,4.000000,4.000000,100.000000,,,,,,,,,,,,,,,,,,,,,,,,,,,,,,,,,
1710116261.806417,124.000000,0.000000,4187.714355,4214.856934,0.000000,2.000000,40.000000,,,,0.000000,4.000000,4.000000,100.000000,,,,,,,,,,,,,,,,,,,,,,,,,,,,,,,,,
1710116261.814275,125.000000,0.000000,4187.238281,4202.952148,0.000000,2.000000,40.000000,,,,0.000000,4.000000,4.000000,100.000000,,,,,,,,,,,,,,,,,,,,,,,,,,,,,,,,,
1710116261.822132,126.000000,0.000000,4184.380859,4203.904785,0.000000,2.000000,40.000000,,,,0.000000,4.000000,4.000000,100.000000,,,,,,,,,,,,,,,,,,,,,,,,,,,,,,,,,
1710116261.830096,127.000000,0.000000,4175.333496,4211.047852,0.000000,2.000000,40.000000,,,,0.000000,4.000000,4.000000,100.000000,,,,,6.000000,0.000000,0.560081,0.296875,-0.738281,-0.230469,,,,,,,,,,,,,,,,,,,,,,,
1710116261.837960,0.000000,0.000000,4165.809570,4205.809570,0.000000,2.000000,40.000000,,,,0.000000,4.000000,4.000000,100.000000,,,,,,,,,,,,,,,,,,,,,,,,,,,,,,,,,
1710116261.845824,1.000000,0.000000,4166.285645,4196.761719,0.000000,2.000000,40.000000,,,,0.000000,4.000000,4.000000,100.000000,,,,,,,,,,,,,,,,,,,,,,,,,,,,,,,,,
1710116261.853687,2.000000,0.000000,4173.904785,4199.619141,0.000000,2.000000,40.000000,,,,0.000000,4.000000,4.000000,100.000000,,,,,,,,,,,1.000000,0.000000,0.000000,,,,,,,,,,,1.119568,0.162919,0.236938,0.095371,0.088822,1.255433,0.280084,0.741031,0.369436,0.187462
1710116261.861551,3.000000,0.000000,4177.714355,4206.285645,0.000000,2.000000,40.000000,,,,0.000000,4.000000,4.000000,100.000000,,,,,,,,,,,,,,,,,,,,,,,,,,,,,,,,,
1710116261.869510,4.000000,0.000000,4176.285645,4202.476074,0.000000,2.000000,40.000000,,,,0.000000,4.000000,4.000000,100.000000,,,,,,,,,,,,,,,,,,,,,,,,,,,,,,,,,
1710116261.877369,5.000000,0.000000,4178.190430,4194.380859,0.000000,2.000000,40.000000,,,,0.000000,4.000000,4.000000,100.000000,,,,,,,,,,,,,,,,,,,,,,,,,,,,,,,,,
1710116261.885228,6.000000,0.000000,4182.000000,4194.856934,0.000000,2.000000,40.000000,,,,0.000000,4.000000,4.000000,100.000000,,,,,,,,,,,,,,,,,,,,,,,,,,,,,,,,,
1710116261.893087,7.000000,0.000000,4183.428711,4199.143066,0.000000,2.000000,40.000000,,,,0.000000,4.000000,4.000000,100.000000,,,,,,,,,,,,,,,,,,,,,,,,,,,,,,,,,
1710116261.900946,8.000000,0.000000,4191.523926,4201.523926,0.000000,2.000000,40.000000,,,,0.000000,4.000000,4.000000,100.000000,,,,,,,,,,,,,,,,,,,,,,,,,,,,,,,,,
1710116261.908903,9.000000,0.000000,4202.000000,4205.333496,0.000000,2.000000,40.000000,,,,0.000000,4.000000,4.000000,100.000000,,,,,,,,,,,,,,,,,,,,,,,,,,,,,,,,,
1710116261.916760,10.000000,0.000000,4201.047852,4208.666504,0.000000,2.000000,40.000000,,,,0.000000,4.000000,4.000000,100.000000,,,,,,,,,,,,,,,,,,,,,,,,,,,,,,,,,
1710116261.924617,11.000000,0.000000,4194.380859,4205.809570,0.000000,2.000000,40.000000,,,,0.000000,4.000000,4.000000,100.000000,,,,,,,,,,,,,,,,,,,,,,,,,,,,,,,,,
1710116261.932474,12.000000,0.000000,4195.809570,4201.523926,0.000000,2.000000,40.000000,,,,0.000000,4.000000,4.000000,100.000000,,,,,,,,,,,,,,,,,,,,,,,,,,,,,,,,,
1710116261.940331,13.000000,0.000000,4198.666504,4198.190430,0.000000,2.000000,40.000000,,,,0.000000,4.000000,4.000000,100.000000,,,,,,,,,,,,,,,,,,,,,,,,,,,,,,,,,
1710116261.948289,14.000000,0.000000,4194.380859,4190.095215,0.000000,2.000000,40.000000,,,,0.000000,4.000000,4.000000,100.000000,,,,,,,,,,,,,,,,,,,,,,,,,,,,,,,,,
1710116261.956147,15.000000,0.000000,4191.047852,4184.380859,0.000000,2.000000,40.000000,,,,0.000000,4.000000,4.000000,100.000000,,,,,,,,,,,,,,,,,,,,,,,,,,,,,,,,,
1710116261.964005,16.000000,0.000000,4192.952148,4191.523926,0.000000,2.000000,40.000000,,,,0.000000,4.000000,4.000000,100.000000,,,,,,,,,,,,,,,,,,,,,,,,,,,,,,,,,
1710116261.971862,17.000000,0.000000,4198.666504,4199.619141,0.000000,2.000000,40.000000,,,,0.000000,4.000000,4.000000,100.000000,,,,,,,,,,,,,,,,,,,,,,,,,,,,,,,,,
1710116261.979720,18.000000,0.000000,4204.856934,4201.523926,0.000000,2.000000,40.000000,,,,0.000000,4.000000,4.000000,100.000000,1.000000,100.000000,4.000000,4.000000,,,,,,,1.000000,0.000000,0.000000,,,,,,,,,,,0.926264,0.143713,0.228128,0.096422,0.092214,1.145141,0.304443,0.585580,0.392218,0.195221
1710116261.987678,19.000000,0.000000,4202.952148,4205.809570,0.000000,2.000000,40.000000,,,,0.000000,4.000000,4.000000,100.000000,,,,,7.000000,0.000000,0.560081,0.296875,-0.738281,-0.230469,,,,,,,,,,,,,,,,,,,,,,,
1710116261.995537,20.000000,0.000000,4195.333496,4203.428711,0.000000,2.000000,40.000000,,,,0.000000,4.000000,4.000000,100.000000,,,,,,,,,,,,,,,,,,,,,,,,,,,,,,,,,
1710116262.003395,21.000000,0.000000,4197.714355,4192.952148,0.000000,2.000000,40.000000,,,,0.000000,4.000000,4.000000,100.000000,,,,,,,,,,,,,,,,,,,,,,,,,,,,,,,,,
1710116262.011253,22.000000,0.000000,4208.666504,4192.476074,0.000000,2.000000,40.000000,,,,0.000000,4.000000,4.000000,100.000000,,,,,,,,,,,,,,,,,,,,,,,,,,,,,,,,,
1710116262.019111,23.000000,0.000000,4209.143066,4200.095215,0.000000,2.000000,40.000000,,,,0.000000,4.000000,4.000000,100.000000,,,,,,,,,,,,,,,,,,,,,,,,,,,,,,,,,
1710116262.027068,24.000000,0.000000,4200.571289,4201.523926,0.000000,2.000000,40.000000,,,,0.000000,4.000000,4.000000,100.000000,,,,,,,,,,,,,,,,,,,,,,,,,,,,,,,,,
1710116262.034924,25.000000,0.000000,4202.476074,4203.428711,0.000000,2.000000,40.000000,,,,0.000000,4.000000,4.000000,100.000000,,,,,,,,,,,,,,,,,,,,,,,,,,,,,,,,,
1710116262.042780,26.000000,0.000000,4211.523926,4203.904785,0.000000,2.000000,40.000000,,,,0.000000,4.000000,4.000000,100.000000,,,,,,,,,,,,,,,,,,,,,,,,,,,,,,,,,
1710116262.050637,27.000000,0.000000,4215.333496,4197.238281,0.000000,2.000000,40.000000,,,,0.000000,4.000000,4.000000,100.000000,,,,,,,,,,,,,,,,,,,,,,,,,,,,,,,,,
1710116262.058493,28.000000,0.000000,4214.856934,4197.238281,0.000000,2.000000,40.000000,,,,0.000000,4.000000,4.000000,100.000000,,,,,,,,,,,,,,,,,,,,,,,,,,,,,,,,,
1710116262.066450,29.000000,0.000000,4213.904785,4202.000000,0.000000,2.000000,40.000000,,,,0.000000,4.000000,4.000000,100.000000,,,,,,,,,,,,,,,,,,,,,,,,,,,,,,,,,
1710116262.074307,30.000000,0.000000,4213.904785,4198.666504,0.000000,2.000000,40.000000,,,,0.000000,4.000000,4.000000,100.000000,,,,,,,,,,,,,,,,,,,,,,,,,,,,,,,,,
1710116262.082164,31.000000,0.000000,4217.238281,4198.190430,0.000000,2.000000,40.000000,,,,0.000000,4.000000,4.000000,100.000000,,,,,,,,,,,,,,,,,,,,,,,,,,,,,,,,,
1710116262.090021,32.000000,0.000000,4221.047852,4202.476074,0.000000,2.000000,40.000000,,,,0.000000,4.000000,4.000000,100.000000,,,,,,,,,,,,,,,,,,,,,,,,,,,,,,,,,
1710116262.097879,33.000000,0.000000,4220.571289,4200.571289,0.000000,2.000000,40.000000,,,,0.000000,4.000000,4.000000,100.000000,,,,,,,,,,,,,,,,,,,,,,,,,,,,,,,,,
1710116262.105836,34.000000,0.000000,4215.809570,4197.714355,0.000000,2.000000,40.000000,,,,0.000000,4.000000,4.000000,100.000000,,,,,,,,,,,1.000000,0.000000,0.000000,,,,,,,,,,,0.747918,0.119398,0.234458,0.097595,0.097554,1.019309,0.346953,0.445842,0.418943,0.195205
1710116262.113694,35.000000,0.000000,4209.619141,4192.476074,0.000000,2.000000,40.000000,,,,0.000000,4.000000,4.000000,100.000000,,,,,,,,,,,,,,,,,,,,,,,,,,,,,,,,,
1710116262.121552,36.000000,0.000000,4206.285645,4182.000000,0.000000,2.000000,40.000000,,,,0.000000,4.000000,4.000000,100.000000,,,,,,,,,,,,,,,,,,,,,,,,,,,,,,,,,
1710116262.129410,37.000000,0.000000,4211.523926,4180.095215,0.000000,2.000000,40.000000,,,,0.000000,4.000000,4.000000,100.000000,,,,,,,,,,,,,,,,,,,,,,,,,,,,,,,,,
1710116262.137267,38.000000,0.000000,4217.714355,4186.285645,0.000000,2.000000,40.000000,,,,0.000000,4.000000,4.000000,100.000000,,,,,,,,,,,,,,,,,,,,,,,,,,,,,,,,,
1710116262.145226,39.000000,0.000000,4215.809570,4186.761719,0.000000,2.000000,40.000000,,,,0.000000,4.000000,4.000000,100.000000,,,,,8.000000,0.000000,0.565193,0.296875,-0.734375,-0.230469,,,,,,,,,,,,,,,,,,,,,,,
1710116262.153084,40.000000,0.000000,4212.000000,4189.619141,0.000000,2.000000,40.000000,,,,0.000000,4.000000,4.000000,100.000000,,,,,,,,,,,,,,,,,,,,,,,,,,,,,,,,,
1710116262.160943,41.000000,0.000000,4213.428711,4192.476074,0.000000,2.000000,40.000000,,,,0.000000,4.000000,4.000000,100.000000,,,,,,,,,,,,,,,,,,,,,,,,,,,,,,,,,
1710116262.168801,42.000000,0.000000,4216.285645,4186.285645,0.000000,2.000000,40.000000,,,,0.000000,4.000000,4.000000,100.000000,,,,,,,,,,,,,,,,,,,,,,,,,,,,,,,,,
1710116262.176660,43.000000,0.000000,4212.000000,4183.428711,0.000000,2.000000,40.000000,,,,0.000000,4.000000,4.000000,100.000000,,,,,,,,,,,,,,,,,,,,,,,,,,,,,,,,,
1710116262.184616,44.000000,0.000000,4205.809570,4192.000000,0.000000,2.000000,40.000000,,,,0.000000,4.000000,4.000000,100.000000,,,,,,,,,,,,,,,,,,,,,,,,,,,,,,,,,
1710116262.192473,45.000000,0.000000,4206.761719,4194.856934,0.000000,2.000000,40.000000,,,,0.000000,4.000000,4.000000,100.000000,,,,,,,,,,,,,,,,,,,,,,,,,,,,,,,,,
1710116262.200329,46.000000,0.000000,4211.523926,4190.571289,0.000000,2.000000,40.000000,,,,0.000000,4.000000,4.000000,100.000000,,,,,,,,,,,,,,,,,,,,,,,,,,,,,,,,,
1710116262.208185,47.000000,0.000000,4214.856934,4191.523926,0.000000,2.000000,40.000000,,,,0.000000,4.000000,4.000000,100.000000,,,,,,,,,,,,,,,,,,,,,,,,,,,,,,,,,
1710116262.216042,48.000000,0.000000,4218.190430,4194.380859,0.000000,2.000000,40.000000,,,,0.000000,4.000000,4.000000,100.000000,,,,,,,,,,,,,,,,,,,,,,,,,,,,,,,,,
1710116262.223999,49.000000,0.000000,4216.761719,4192.952148,0.000000,2.000000,40.000000,,,,0.000000,4.000000,4.000000,100.000000,,,,,,,,,,,,,,,,,,,,,,,,,,,,,,,,,
1710116262.231856,50.000000,0.000000,4216.761719,4194.380859,0.000000,2.000000,40.000000,,,,0.000000,4.000000,4.000000,100.000000,,,,,,,,,,,1.000000,0.000000,0.000000,,,,,,,,,,,0.681569,0.108602,0.255669,0.102752,0.105079,0.952853,0.409690,0.355926,0.441162,0.186736
1710116262.239713,51.000000,0.000000,4224.856934,4201.047852,0.000000,2.000000,40.000000,,,,0.000000,4.000000,4.000000,100.000000,,,,,,,,,,,,,,,,,,,,,,,,,,,,,,,,,
1710116262.247570,52.000000,0.000000,4227.714355,4201.523926,0.000000,2.000000,40.000000,,,,0.000000,4.000000,4.000000,100.000000,,,,,,,,,,,,,,,,,,,,,,,,,,,,,,,,,
1710116262.255427,53.000000,0.000000,4220.095215,4194.380859,0.000000,2.000000,40.000000,,,,0.000000,4.000000,4.000000,100.000000,,,,,,,,,,,,,,,,,,,,,,,,,,,,,,,,,
1710116262.263385,54.000000,0.000000,4221.047852,4192.952148,0.000000,2.000000,40.000000,,,,0.000000,4.000000,4.000000,100.000000,,,,,,,,,,,,,,,,,,,,,,,,,,,,,,,,,
1710116262.271242,55.000000,0.000000,4227.714355,4201.047852,0.000000,2.000000,40.000000,,,,0.000000,4.000000,4.000000,100.000000,,,,,,,,,,,,,,,,,,,,,,,,,,,,,,,,,
1710116262.279100,56.000000,0.000000,4226.761719,4208.666504,0.000000,2.000000,40.000000,,,,0.000000,4.000000,4.000000,100.000000,,,,,,,,,,,,,,,,,,,,,,,,,,,,,,,,,
1710116262.286958,57.000000,0.000000,4224.380859,4210.095215,0.000000,2.000000,40.000000,,,,0.000000,4.000000,4.000000,100.000000,,,,,,,,,,,,,,,,,,,,,,,,,,,,,,,,,
1710116262.294816,58.000000,0.000000,4224.856934,4205.809570,0.000000,2.000000,40.000000,,,,0.000000,4.000000,4.000000,100.000000,,,,,,,,,,,,,,,,,,,,,,,,,,,,,,,,,
1710116262.302774,59.000000,0.000000,4222.000000,4203.428711,0.000000,2.000000,40.000000,,,,0.000000,4.000000,4.000000,100.000000,,,,,9.000000,0.000000,0.565193,0.296875,-0.734375,-0.230469,,,,,,,,,,,,,,,,,,,,,,,
1710116262.310633,60.000000,0.000000,4220.571289,4207.238281,0.000000,2.000000,40.000000,,,,0.000000,4.000000,4.000000,100.000000,,,,,,,,,,,,,,,,,,,,,,,,,,,,,,,,,
1710116262.318491,61.000000,0.000000,4222.952148,4208.190430,0.000000,2.000000,40.000000,,,,0.000000,4.000000,4.000000,100.000000,,,,,,,,,,,,,,,,,,,,,,,,,,,,,,,,,
1710116262.326350,62.000000,0.000000,4220.571289,4205.809570,0.000000,2.000000,40.000000,,,,0.000000,4.000000,4.000000,100.000000,,,,,,,,,,,,,,,,,,,,,,,,,,,,,,,,,
1710116262.334208,63.000000,0.000000,4216.761719,4212.476074,0.000000,2.000000,40.000000,,,,0.000000,4.000000,4.000000,100.000000,,,,,,,,,,,,,,,,,,,,,,,,,,,,,,,,,
1710116262.342165,64.000000,0.000000,4215.809570,4220.571289,0.000000,2.000000,40.000000,,,,0.000000,4.000000,4.000000,100.000000,,,,,,,,,,,,,,,,,,,,,,,,,,,,,,,,,
1710116262.350021,65.000000,0.000000,4218.190430,4220.571289,0.000000,2.000000,40.000000,,,,0.000000,4.000000,4.000000,100.000000,,,,,,,,,,,,,,,,,,,,,,,,,,,,,,,,,
1710116262.357878,66.000000,0.000000,4221.047852,4226.285645,0.000000,2.000000,40.000000,,,,0.000000,4.000000,4.000000,100.000000,,,,,,,,,,,1.000000,0.000000,0.000000,,,,,,,,,,,0.778142,0.127415,0.282207,0.114113,0.114821,0.971085,0.487592,0.327792,0.451747,0.171817
1710116262.365735,67.000000,0.000000,4220.095215,4230.095215,0.000000,2.000000,40.000000,,,,0.000000,4.000000,4.000000,100.000000,,,,,,,,,,,,,,,,,,,,,,,,,,,,,,,,,
1710116262.373591,68.000000,0.000000,4213.904785,4217.714355,0.000000,2.000000,40.000000,,,,0.000000,4.000000,4.000000,100.000000,,,,,,,,,,,,,,,,,,,,,,,,,,,,,,,,,
1710116262.381548,69.000000,0.000000,4211.047852,4209.143066,0.000000,2.000000,40.000000,,,,0.000000,4.000000,4.000000,100.000000,,,,,,,,,,,,,,,,,,,,,,,,,,,,,,,,,
1710116262.389405,70.000000,0.000000,4216.761719,4213.428711,0.000000,2.000000,40.000000,,,,0.000000,4.000000,4.000000,100.000000,,,,,,,,,,,,,,,,,,,,,,,,,,,,,,,,,
1710116262.397262,71.000000,0.000000,4224.856934,4211.047852,0.000000,2.000000,40.000000,,,,0.000000,4.000000,4.000000,100.000000,,,,,,,,,,,,,,,,,,,,,,,,,,,,,,,,,
1710116262.405119,72.000000,0.000000,4230.095215,4206.285645,0.000000,2.000000,40.000000,,,,0.000000,4.000000,4.000000,100.000000,,,,,,,,,,,,,,,,,,,,,,,,,,,,,,,,,
1710116262.412977,73.000000,0.000000,4230.571289,4209.143066,0.000000,2.000000,40.000000,,,,0.000000,4.000000,4.000000,100.000000,,,,,,,,,,,,,,,,,,,,,,,,,,,,,,,,,
1710116262.420934,74.000000,0.000000,4227.714355,4211.523926,0.000000,2.000000,40.000000,,,,0.000000,4.000000,4.000000,100.000000,,,,,,,,,,,,,,,,,,,,,,,,,,,,,,,,,
1710116262.428792,75.000000,0.000000,4222.952148,4212.952148,0.000000,2.000000,40.000000,,,,0.000000,4.000000,4.000000,100.000000,,,,,,,,,,,,,,,,,,,,,,,,,,,,,,,,,
1710116262.436650,76.000000,0.000000,4220.571289,4216.285645,0.000000,2.000000,40.000000,,,,0.000000,4.000000,4.000000,100.000000,,,,,,,,,,,,,,,,,,,,,,,,,,,,,,,,,
1710116262.444508,77.000000,0.000000,4221.047852,4213.904785,0.000000,2.000000,40.000000,,,,0.000000,4.000000,4.000000,100.000000,,,,,,,,,,,,,,,,,,,,,,,,,,,,,,,,,
1710116262.452365,78.000000,0.000000,4221.523926,4208.666504,0.000000,2.000000,40.000000,,,,0.000000,4.000000,4.000000,100.000000,,,,,,,,,,,,,,,,,,,,,,,,,,,,,,,,,
1710116262.460324,79.000000,0.000000,4221.047852,4205.809570,0.000000,2.000000,40.000000,,,,0.000000,4.000000,4.000000,100.000000,,,,,10.000000,0.000000,0.565193,0.296875,-0.734375,-0.230469,,,,,,,,,,,,,,,,,,,,,,,
1710116262.468182,80.000000,0.000000,4216.285645,4200.571289,0.000000,2.000000,40.000000,,,,0.000000,4.000000,4.000000,100.000000,,,,,,,,,,,,,,,,,,,,,,,,,,,,,,,,,
1710116262.476041,81.000000,0.000000,4210.571289,4193.428711,0.000000,2.000000,40.000000,,,,0.000000,4.000000,4.000000,100.000000,,,,,,,,,,,,,,,,,,,,,,,,,,,,,,,,,
1710116262.483899,82.000000,0.000000,4209.143066,4193.904785,0.000000,2.000000,40.000000,,,,0.000000,4.000000,4.000000,100.000000,1.000000,100.000000,4.000000,4.000000,,,,,,,1.000000,0.000000,0.000000,,,,,,,,,,,1.010393,0.180438,0.300692,0.129960,0.126003,1.057358,0.563267,0.346699,0.447940,0.154152
1710116262.491758,83.000000,0.000000,4211.047852,4200.095215,0.000000,2.000000,40.000000,,,,0.000000,4.000000,4.000000,100.000000,,,,,,,,,,,,,,,,,,,,,,,,,,,,,,,,,
1710116262.499714,84.000000,0.000000,4210.571289,4204.380859,0.000000,2.000000,40.000000,,,,0.000000,4.000000,4.000000,100.000000,,,,,,,,,,,,,,,,,,,,,,,,,,,,,,,,,
1710116262.507571,85.000000,0.000000,4208.666504,4204.380859,0.000000,2.000000,40.000000,,,,0.000000,4.000000,4.000000,100.000000,,,,,,,,,,,,,,,,,,,,,,,,,,,,,,,,,
1710116262.515428,86.000000,0.000000,4205.809570,4199.619141,0.000000,2.000000,40.000000,,,,0.000000,4.000000,4.000000,100.000000,,,,,,,,,,,,,,,,,,,,,,,,,,,,,,,,,
1710116262.523284,87.000000,0.000000,4199.619141,4192.476074,0.000000,2.000000,40.000000,,,,0.000000,4.000000,4.000000,100.000000,,,,,,,,,,,,,,,,,,,,,,,,,,,,,,,,,
1710116262.531141,88.000000,0.000000,4195.333496,4191.523926,0.000000,2.000000,40.000000,,,,0.000000,4.000000,4.000000,100.000000,,,,,,,,,,,,,,,,,,,,,,,,,,,,,,,,,
1710116262.539098,89.000000,0.000000,4196.761719,4200.571289,0.000000,2.000000,40.000000,,,,0.000000,4.000000,4.000000,100.000000,,,,,,,,,,,,,,,,,,,,,,,,,,,,,,,,,
1710116262.546955,90.000000,0.000000,4203.428711,4205.333496,0.000000,2.000000,40.000000,,,,0.000000,4.000000,4.000000,100.000000,,,,,,,,,,,,,,,,,,,,,,,,,,,,,,,,,
1710116262.554813,91.000000,0.000000,4212.000000,4194.856934,0.000000,2.000000,40.000000,,,,0.000000,4.000000,4.000000,100.000000,,,,,,,,,,,,,,,,,,,,,,,,,,,,,,,,,
1710116262.562670,92.000000,0.000000,4214.856934,4187.714355,0.000000,2.000000,40.000000,,,,0.000000,4.000000,4.000000,100.000000,,,,,,,,,,,,,,,,,,,,,,,,,,,,,,,,,
1710116262.570527,93.000000,0.000000,4211.523926,4199.143066,0.000000,2.000000,40.000000,,,,0.000000,4.000000,4.000000,100.000000,,,,,,,,,,,,,,,,,,,,,,,,,,,,,,,,,
1710116262.578485,94.000000,0.000000,4208.666504,4209.143066,0.000000,2.000000,40.000000,,,,0.000000,4.000000,4.000000,100.000000,,,,,,,,,,,,,,,,,,,,,,,,,,,,,,,,,
1710116262.586343,95.000000,0.000000,4206.285645,4202.000000,0.000000,2.000000,40.000000,,,,0.000000,4.000000,4.000000,100.000000,,,,,,,,,,,,,,,,,,,,,,,,,,,,,,,,,
1710116262.594201,96.000000,0.000000,4205.809570,4192.000000,0.000000,2.000000,40.000000,,,,0.000000,4.000000,4.000000,100.000000,,,,,,,,,,,,,,,,,,,,,,,,,,,,,,,,,
1710116262.602058,97.000000,0.000000,4210.571289,4189.143066,0.000000,2.000000,40.000000,,,,0.000000,4.000000,4.000000,100.000000,,,,,,,,,,,,,,,,,,,,,,,,,,,,,,,,,
1710116262.609916,98.000000,0.000000,4212.952148,4190.095215,0.000000,2.000000,40.000000,,,,0.000000,4.000000,4.000000,100.000000,,,,,,,,,,,1.000000,0.000000,0.000000,,,,,,,,,,,1.283662,0.257185,0.299268,0.145425,0.136871,1.143628,0.615388,0.387976,0.431702,0.137705
1710116262.617875,99.000000,0.000000,4208.666504,4191.047852,0.000000,2.000000,40.000000,,,,0.000000,4.000000,4.000000,100.000000,,,,,11.000000,0.000000,0.565193,0.296875,-0.734375,-0.230469,,,,,,,,,,,,,,,,,,,,,,,
1710116262.625733,100.000000,0.000000,4206.285645,4187.238281,0.000000,2.000000,40.000000,,,,0.000000,4.000000,4.000000,100.000000,,,,,,,,,,,,,,,,,,,,,,,,,,,,,,,,,
1710116262.633592,101.000000,0.000000,4207.714355,4182.476074,0.000000,2.000000,40.000000,,,,0.000000,4.000000,4.000000,100.000000,,,,,,,,,,,,,,,,,,,,,,,,,,,,,,,,,
1710116262.641450,102.000000,0.000000,4209.143066,4184.380859,0.000000,2.000000,40.000000,,,,0.000000,4.000000,4.000000,100.000000,,,,,,,,,,,,,,,,,,,,,,,,,,,,,,,,,
1710116262.649309,103.000000,0.000000,4208.190430,4192.476074,0.000000,2.000000,40.000000,,,,0.000000,4.000000,4.000000,100.000000,,,,,,,,,,,,,,,,,,,,,,,,,,,,,,,,,
1710116262.657265,104.000000,0.000000,4204.380859,4198.666504,0.000000,2.000000,40.000000,,,,0.000000,4.000000,4.000000,100.000000,,,,,,,,,,,,,,,,,,,,,,,,,,,,,,,,,
1710116262.665122,105.000000,0.000000,4202.000000,4202.000000,0.000000,2.000000,40.000000,,,,0.000000,4.000000,4.000000,100.000000,,,,,,,,,,,,,,,,,,,,,,,,,,,,,,,,,
1710116262.672978,106.000000,0.000000,4204.856934,4200.571289,0.000000,2.000000,40.000000,,,,0.000000,4.000000,4.000000,100.000000,,,,,,,,,,,,,,,,,,,,,,,,,,,,,,,,,
1710116262.680835,107.000000,0.000000,4204.856934,4200.095215,0.000000,2.000000,40.000000,,,,0.000000,4.000000,4.000000,100.000000,,,,,,,,,,,,,,,,,,,,,,,,,,,,,,,,,
1710116262.688692,108.000000,0.000000,4200.571289,4207.238281,0.000000,2.000000,40.000000,,,,0.000000,4.000000,4.000000,100.000000,,,,,,,,,,,,,,,,,,,,,,,,,,,,,,,,,
1710116262.696649,109.000000,0.000000,4203.428711,4209.619141,0.000000,2.000000,40.000000,,,,0.000000,4.000000,4.000000,100.000000,,,,,,,,,,,,,,,,,,,,,,,,,,,,,,,,,
1710116262.704506,110.000000,0.000000,4207.238281,4198.190430,0.000000,2.000000,40.000000,,,,0.000000,4.000000,4.000000,100.000000,,,,,,,,,,,,,,,,,,,,,,,,,,,,,,,,,
1710116262.712364,111.000000,0.000000,4204.856934,4193.904785,0.000000,2.000000,40.000000,,,,0.000000,4.000000,4.000000,100.000000,,,,,,,,,,,,,,,,,,,,,,,,,,,,,,,,,
1710116262.720221,112.000000,0.000000,4203.904785,4202.000000,0.000000,2.000000,40.000000,,,,0.000000,4.000000,4.000000,100.000000,,,,,,,,,,,,,,,,,,,,,,,,,,,,,,,,,
1710116262.728078,113.000000,0.000000,4204.380859,4202.000000,0.000000,2.000000,40.000000,,,,0.000000,4.000000,4.000000,100.000000,,,,,,,,,,,,,,,,,,,,,,,,,,,,,,,,,
1710116262.736036,114.000000,0.000000,4202.476074,4194.856934,0.000000,2.000000,40.000000,,,,0.000000,4.000000,4.000000,100.000000,,,,,,,,,,,1.000000,0.000000,0.000000,,,,,,,,,,,1.502373,0.332671,0.278576,0.156630,0.144795,1.162426,0.630726,0.436836,0.409261,0.125178
1710116262.743894,115.000000,0.000000,4205.809570,4198.190430,0.000000,2.000000,40.000000,,,,0.000000,4.000000,4.000000,100.000000,,,,,,,,,,,,,,,,,,,,,,,,,,,,,,,,,
1710116262.751752,116.000000,0.000000,4210.571289,4205.809570,0.000000,2.000000,40.000000,,,,0.000000,4.000000,4.000000,100.000000,,,,,,,,,,,,,,,,,,,,,,,,,,,,,,,,,
1710116262.759610,117.000000,0.000000,4207.238281,4204.856934,0.000000,2.000000,40.000000,,,,0.000000,4.000000,4.000000,100.000000,,,,,,,,,,,,,,,,,,,,,,,,,,,,,,,,,
1710116262.767468,118.000000,0.000000,4203.428711,4198.666504,0.000000,2.000000,40.000000,,,,0.000000,4.000000,4.000000,100.000000,,,,,,,,,,,,,,,,,,,,,,,,,,,,,,,,,
1710116262.775429,119.000000,0.000000,4202.476074,4196.285645,0.000000,2.000000,40.000000,,,,0.000000,4.000000,4.000000,100.000000,,,,,12.000000,0.000000,0.565193,0.296875,-0.734375,-0.230469,,,,,,,,,,,,,,,,,,,,,,,
1710116262.783290,120.000000,0.000000,4199.143066,4199.619141,0.000000,2.000000,40.000000,,,,0.000000,4.000000,4.000000,100.000000,,,,,,,,,,,,,,,,,,,,,,,,,,,,,,,,,
1710116262.791152,121.000000,0.000000,4197.238281,4200.095215,0.000000,2.000000,40.000000,,,,0.000000,4.000000,4.000000,100.000000,,,,,,,,,,,,,,,,,,,,,,,,,,,,,,,,,
1710116262.799013,122.000000,0.000000,4196.285645,4194.380859,0.000000,2.000000,40.000000,,,,0.000000,4.000000,4.000000,100.000000,,,,,,,,,,,,,,,,,,,,,,,,,,,,,,,,,
1710116262.806874,123.000000,0.000000,4194.380859,4195.809570,0.000000,2.000000,40.000000,,,,0.000000,4.000000,4.000000,100.000000,,,,,,,,,,,,,,,,,,,,,,,,,,,,,,,,,
1710116262.814830,124.000000,0.000000,4198.190430,4205.809570,0.000000,2.000000,40.000000,,,,0.000000,4.000000,4.000000,100.000000,,,,,,,,,,,,,,,,,,,,,,,,,,,,,,,,,
1710116262.822687,125.000000,0.000000,4203.428711,4209.619141,0.000000,2.000000,40.000000,,,,0.000000,4.000000,4.000000,100.000000,,,,,,,,,,,,,,,,,,,,,,,,,,,,,,,,,
1710116262.830544,126.000000,0.000000,4201.047852,4209.619141,0.000000,2.000000,40.000000,,,,0.000000,4.000000,4.000000,100.000000,,,,,,,,,,,,,,,,,,,,,,,,,,,,,,,,,
1710116262.838400,127.000000,0.000000,4199.619141,4214.856934,0.000000,2.000000,40.000000,,,,0.000000,4.000000,4.000000,100.000000,,,,,,,,,,,,,,,,,,,,,,,,,,,,,,,,,
1710116262.846257,0.000000,0.000000,4204.856934,4212.476074,0.000000,2.000000,40.000000,,,,0.000000,4.000000,4.000000,100.000000,,,,,,,,,,,,,,,,,,,,,,,,,,,,,,,,,
1710116262.854214,1.000000,0.000000,4203.428711,4200.571289,0.000000,2.000000,40.000000,,,,0.000000,4.000000,4.000000,100.000000,,,,,,,,,,,,,,,,,,,,,,,,,,,,,,,,,
1710116262.862071,2.000000,0.000000,4195.809570,4199.143066,0.000000,2.000000,40.000000,,,,0.000000,4.000000,4.000000,100.000000,,,,,,,,,,,1.000000,0.000000,0.000000,,,,,,,,,,,1.605644,0.376999,0.250913,0.163376,0.146871,1.086236,0.612169,0.494652,0.385243,0.118026
1710116262.869929,3.000000,0.000000,4197.238281,4210.571289,0.000000,2.000000,40.000000,,,,0.000000,4.000000,4.000000,100.000000,,,,,,,,,,,,,,,,,,,,,,,,,,,,,,,,,
1710116262.877786,4.000000,0.000000,4205.809570,4213.904785,0.000000,2.000000,40.000000,,,,0.000000,4.000000,4.000000,100.000000,,,,,,,,,,,,,,,,,,,,,,,,,,,,,,,,,
1710116262.885643,5.000000,0.000000,4207.238281,4204.380859,0.000000,2.000000,40.000000,,,,0.000000,4.000000,4.000000,100.000000,,,,,,,,,,,,,,,,,,,,,,,,,,,,,,,,,
1710116262.893601,6.000000,0.000000,4200.095215,4197.238281,0.000000,2.000000,40.000000,,,,0.000000,4.000000,4.000000,100.000000,,,,,,,,,,,,,,,,,,,,,,,,,,,,,,,,,
1710116262.901459,7.000000,0.000000,4192.476074,4193.904785,0.000000,2.000000,40.000000,,,,0.000000,4.000000,4.000000,100.000000,,,,,,,,,,,,,,,,,,,,,,,,,,,,,,,,,
1710116262.909317,8.000000,0.000000,4187.238281,4184.380859,0.000000,2.000000,40.000000,,,,0.000000,4.000000,4.000000,100.000000,,,,,,,,,,,,,,,,,,,,,,,,,,,,,,,,,
1710116262.917175,9.000000,0.000000,4181.047852,4176.285645,0.000000,2.000000,40.000000,,,,0.000000,4.000000,4.000000,100.000000,,,,,,,,,,,,,,,,,,,,,,,,,,,,,,,,,
1710116262.925033,10.000000,0.000000,4177.238281,4176.285645,0.000000,2.000000,40.000000,,,,0.000000,4.000000,4.000000,100.000000,,,,,,,,,,,,,,,,,,,,,,,,,,,,,,,,,
1710116262.932992,11.000000,0.000000,4177.714355,4171.523926,0.000000,2.000000,40.000000,,,,0.000000,4.000000,4.000000,100.000000,,,,,13.000000,0.000000,0.565193,0.296875,-0.734375,-0.230469,,,,,,,,,,,,,,,,,,,,,,,
1710116262.940851,12.000000,0.000000,4180.095215,4163.428711,0.000000,2.000000,40.000000,,,,0.000000,4.000000,4.000000,100.000000,,,,,,,,,,,,,,,,,,,,,,,,,,,,,,,,,
1710116262.948710,13.000000,0.000000,4183.428711,4168.190430,0.000000,2.000000,40.000000,,,,0.000000,4.000000,4.000000,100.000000,,,,,,,,,,,,,,,,,,,,,,,,,,,,,,,,,
1710116262.956568,14.000000,0.000000,4184.856934,4175.333496,0.000000,2.000000,40.000000,,,,0.000000,4.000000,4.000000,100.000000,,,,,,,,,,,,,,,,,,,,,,,,,,,,,,,,,
1710116262.964427,15.000000,0.000000,4183.428711,4169.619141,0.000000,2.000000,40.000000,,,,0.000000,4.000000,4.000000,100.000000,,,,,,,,,,,,,,,,,,,,,,,,,,,,,,,,,
1710116262.972389,16.000000,0.000000,4185.809570,4166.761719,0.000000,2.000000,40.000000,,,,0.000000,4.000000,4.000000,100.000000,,,,,,,,,,,,,,,,,,,,,,,,,,,,,,,,,
1710116262.980251,17.000000,0.000000,4192.952148,4176.285645,0.000000,2.000000,40.000000,,,,0.000000,4.000000,4.000000,100.000000,,,,,,,,,,,,,,,,,,,,,,,,,,,,,,,,,
1710116262.988112,18.000000,0.000000,4194.856934,4179.143066,0.000000,2.000000,40.000000,,,,0.000000,4.000000,4.000000,100.000000,1.000000,100.000000,4.000000,4.000000,,,,,,,1.000000,0.000000,0.000000,,,,,,,,,,,1.600062,0.373720,0.230295,0.168198,0.141120,0.954705,0.574551,0.560639,0.357949,0.117923
1710116262.995974,19.000000,0.000000,4193.428711,4174.380859,0.000000,2.000000,40.000000,,,,0.000000,4.000000,4.000000,100.000000,,,,,,,,,,,,,,,,,,,,,,,,,,,,,,,,,
1710116263.003836,20.000000,0.000000,4199.619141,4177.238281,0.000000,2.000000,40.000000,,,,0.000000,4.000000,4.000000,100.000000,,,,,,,,,,,,,,,,,,,,,,,,,,,,,,,,,
1710116263.011794,21.000000,0.000000,4207.238281,4181.047852,0.000000,2.000000,40.000000,,,,0.000000,4.000000,4.000000,100.000000,,,,,,,,,,,,,,,,,,,,,,,,,,,,,,,,,
1710116263.019651,22.000000,0.000000,4207.238281,4174.380859,0.000000,2.000000,40.000000,,,,0.000000,4.000000,4.000000,100.000000,,,,,,,,,,,,,,,,,,,,,,,,,,,,,,,,,
1710116263.027509,23.000000,0.000000,4203.904785,4168.666504,0.000000,2.000000,40.000000,,,,0.000000,4.000000,4.000000,100.000000,,,,,,,,,,,,,,,,,,,,,,,,,,,,,,,,,
1710116263.035366,24.000000,0.000000,4205.333496,4174.380859,0.000000,2.000000,40.000000,,,,0.000000,4.000000,4.000000,100.000000,,,,,,,,,,,,,,,,,,,,,,,,,,,,,,,,,
1710116263.043224,25.000000,0.000000,4208.666504,4181.047852,0.000000,2.000000,40.000000,,,,0.000000,4.000000,4.000000,100.000000,,,,,,,,,,,,,,,,,,,,,,,,,,,,,,,,,
1710116263.051184,26.000000,0.000000,4207.238281,4185.333496,0.000000,2.000000,40.000000,,,,0.000000,4.000000,4.000000,100.000000,,,,,,,,,,,,,,,,,,,,,,,,,,,,,,,,,
1710116263.059045,27.000000,0.000000,4203.428711,4192.000000,0.000000,2.000000,40.000000,,,,0.000000,4.000000,4.000000,100.000000,,,,,,,,,,,,,,,,,,,,,,,,,,,,,,,,,
1710116263.066906,28.000000,0.000000,4203.904785,4195.809570,0.000000,2.000000,40.000000,,,,0.000000,4.000000,4.000000,100.000000,,,,,,,,,,,,,,,,,,,,,,,,,,,,,,,,,
1710116263.074766,29.000000,0.000000,4207.238281,4195.809570,0.000000,2.000000,40.000000,,,,0.000000,4.000000,4.000000,100.000000,,,,,,,,,,,,,,,,,,,,,,,,,,,,,,,,,
1710116263.082627,30.000000,0.000000,4204.380859,4197.238281,0.000000,2.000000,40.000000,,,,0.000000,4.000000,4.000000,100.000000,,,,,,,,,,,,,,,,,,,,,,,,,,,,,,,,,
1710116263.090583,31.000000,0.000000,4196.761719,4193.904785,0.000000,2.000000,40.000000,,,,0.000000,4.000000,4.000000,100.000000,,,,,14.000000,0.000000,0.563584,0.296875,-0.734375,-0.234375,,,,,,,,,,,,,,,,,,,,,,,
1710116263.098439,32.000000,0.000000,4197.714355,4188.666504,0.000000,2.000000,40.000000,,,,0.000000,4.000000,4.000000,100.000000,,,,,,,,,,,,,,,,,,,,,,,,,,,,,,,,,
1710116263.106295,33.000000,0.000000,4203.904785,4192.476074,0.000000,2.000000,40.000000,,,,0.000000,4.000000,4.000000,100.000000,,,,,,,,,,,,,,,,,,,,,,,,,,,,,,,,,
1710116263.114152,34.000000,0.000000,4204.856934,4194.856934,0.000000,2.000000,40.000000,,,,0.000000,4.000000,4.000000,100.000000,,,,,,,,,,,1.000000,0.000000,0.000000,,,,,,,,,,,1.513927,0.323200,0.226469,0.173268,0.127710,0.829107,0.529255,0.624405,0.325069,0.125749
1710116263.122008,35.000000,0.000000,4201.047852,4189.143066,0.000000,2.000000,40.000000,,,,0.000000,4.000000,4.000000,100.000000,,,,,,,,,,,,,,,,,,,,,,,,,,,,,,,,,
1710116263.129964,36.000000,0.000000,4202.476074,4193.428711,0.000000,2.000000,40.000000,,,,0.000000,4.000000,4.000000,100.000000,,,,,,,,,,,,,,,,,,,,,,,,,,,,,,,,,
1710116263.137821,37.000000,0.000000,4208.190430,4204.856934,0.000000,2.000000,40.000000,,,,0.000000,4.000000,4.000000,100.000000,,,,,,,,,,,,,,,,,,,,,,,,,,,,,,,,,
1710116263.145678,38.000000,0.000000,4211.047852,4205.809570,0.000000,2.000000,40.000000,,,,0.000000,4.000000,4.000000,100.000000,,,,,,,,,,,,,,,,,,,,,,,,,,,,,,,,,
1710116263.153535,39.000000,0.000000,4212.000000,4205.809570,0.000000,2.000000,40.000000,,,,0.000000,4.000000,4.000000,100.000000,,,,,,,,,,,,,,,,,,,,,,,,,,,,,,,,,
1710116263.161392,40.000000,0.000000,4215.809570,4209.143066,0.000000,2.000000,40.000000,,,,0.000000,4.000000,4.000000,100.000000,,,,,,,,,,,,,,,,,,,,,,,,,,,,,,,,,
1710116263.169349,41.000000,0.000000,4217.714355,4206.761719,0.000000,2.000000,40.000000,,,,0.000000,4.000000,4.000000,100.000000,,,,,,,,,,,,,,,,,,,,,,,,,,,,,,,,,
1710116263.177206,42.000000,0.000000,4215.809570,4210.571289,0.000000,2.000000,40.000000,,,,0.000000,4.000000,4.000000,100.000000,,,,,,,,,,,,,,,,,,,,,,,,,,,,,,,,,
1710116263.185064,43.000000,0.000000,4216.285645,4223.904785,0.000000,2.000000,40.000000,,,,0.000000,4.000000,4.000000,100.000000,,,,,,,,,,,,,,,,,,,,,,,,,,,,,,,,,
1710116263.192921,44.000000,0.000000,4219.143066,4224.380859,0.000000,2.000000,40.000000,,,,0.000000,4.000000,4.000000,100.000000,,,,,,,,,,,,,,,,,,,,,,,,,,,,,,,,,
1710116263.200778,45.000000,0.000000,4220.095215,4216.761719,0.000000,2.000000,40.000000,,,,0.000000,4.000000,4.000000,100.000000,,,,,,,,,,,,,,,,,,,,,,,,,,,,,,,,,
1710116263.208736,46.000000,0.000000,4221.047852,4217.238281,0.000000,2.000000,40.000000,,,,0.000000,4.000000,4.000000,100.000000,,,,,,,,,,,,,,,,,,,,,,,,,,,,,,,,,
1710116263.216594,47.000000,0.000000,4225.333496,4218.190430,0.000000,2.000000,40.000000,,,,0.000000,4.000000,4.000000,100.000000,,,,,,,,,,,,,,,,,,,,,,,,,,,,,,,,,
1710116263.224452,48.000000,0.000000,4226.285645,4217.238281,0.000000,2.000000,40.000000,,,,0.000000,4.000000,4.000000,100.000000,,,,,,,,,,,,,,,,,,,,,,,,,,,,,,,,,
1710116263.232310,49.000000,0.000000,4220.095215,4223.428711,0.000000,2.000000,40.000000,,,,0.000000,4.000000,4.000000,100.000000,,,,,,,,,,,,,,,,,,,,,,,,,,,,,,,,,
1710116263.240168,50.000000,0.000000,4217.714355,4228.190430,0.000000,2.000000,40.000000,,,,0.000000,4.000000,4.000000,100.000000,,,,,,,,,,,1.000000,0.000000,0.000000,,,,,,,,,,,1.415115,0.249491,0.239853,0.178878,0.109298,0.790206,0.491250,0.676355,0.287271,0.140622
1710116263.248124,51.000000,0.000000,4223.904785,4224.856934,0.000000,2.000000,40.000000,,,,0.000000,4.000000,4.000000,100.000000,,,,,15.000000,0.000000,0.563584,0.296875,-0.734375,-0.234375,,,,,,,,,,,,,,,,,,,,,,,
1710116263.255981,52.000000,0.000000,4228.666504,4222.952148,0.000000,2.000000,40.000000,,,,0.000000,4.000000,4.000000,100.000000,,,,,,,,,,,,,,,,,,,,,,,,,,,,,,,,,
1710116263.263837,53.000000,0.000000,4226.761719,4228.190430,0.000000,2.000000,40.000000,,,,0.000000,4.000000,4.000000,100.000000,,,,,,,,,,,,,,,,,,,,,,,,,,,,,,,,,
1710116263.271693,54.000000,0.000000,4224.856934,4232.952148,0.000000,2.000000,40.000000,,,,0.000000,4.000000,4.000000,100.000000,,,,,,,,,,,,,,,,,,,,,,,,,,,,,,,,,
1710116263.279549,55.000000,0.000000,4225.809570,4236.285645,0.000000,2.000000,40.000000,,,,0.000000,4.000000,4.000000,100.000000,,,,,,,,,,,,,,,,,,,,,,,,,,,,,,,,,
1710116263.287516,56.000000,0.000000,4226.761719,4246.761719,0.000000,2.000000,40.000000,,,,0.000000,4.000000,4.000000,100.000000,,,,,,,,,,,,,,,,,,,,,,,,,,,,,,,,,
1710116263.295384,57.000000,0.000000,4226.285645,4257.714355,0.000000,2.000000,40.000000,,,,0.000000,4.000000,4.000000,100.000000,,,,,,,,,,,,,,,,,,,,,,,,,,,,,,,,,
1710116263.303251,58.000000,0.000000,4222.952148,4258.666504,0.000000,2.000000,40.000000,,,,0.000000,4.000000,4.000000,100.000000,,,,,,,,,,,,,,,,,,,,,,,,,,,,,,,,,
1710116263.311118,59.000000,0.000000,4223.904785,4256.761719,0.000000,2.000000,40.000000,,,,0.000000,4.000000,4.000000,100.000000,,,,,,,,,,,,,,,,,,,,,,,,,,,,,,,,,
1710116263.318986,60.000000,0.000000,4229.619141,4256.285645,0.000000,2.000000,40.000000,,,,0.000000,4.000000,4.000000,100.000000,,,,,,,,,,,,,,,,,,,,,,,,,,,,,,,,,
1710116263.326948,61.000000,0.000000,4223.904785,4249.143066,0.000000,2.000000,40.000000,,,,0.000000,4.000000,4.000000,100.000000,,,,,,,,,,,,,,,,,,,,,,,,,,,,,,,,,
1710116263.334811,62.000000,0.000000,4212.952148,4244.856934,0.000000,2.000000,40.000000,,,,0.000000,4.000000,4.000000,100.000000,,,,,,,,,,,,,,,,,,,,,,,,,,,,,,,,,
1710116263.342674,63.000000,0.000000,4216.285645,4251.523926,0.000000,2.000000,40.000000,,,,0.000000,4.000000,4.000000,100.000000,,,,,,,,,,,,,,,,,,,,,,,,,,,,,,,,,
1710116263.350537,64.000000,0.000000,4220.095215,4252.952148,0.000000,2.000000,40.000000,,,,0.000000,4.000000,4.000000,100.000000,,,,,,,,,,,,,,,,,,,,,,,,,,,,,,,,,
1710116263.358399,65.000000,0.000000,4213.904785,4250.571289,0.000000,2.000000,40.000000,,,,0.000000,4.000000,4.000000,100.000000,,,,,,,,,,,,,,,,,,,,,,,,,,,,,,,,,
1710116263.366358,66.000000,0.000000,4214.380859,4259.619141,0.000000,2.000000,40.000000,,,,0.000000,4.000000,4.000000,100.000000,,,,,,,,,,,1.000000,0.000000,0.000000,,,,,,,,,,,1.385706,0.182937,0.261323,0.182961,0.090196,0.917748,0.472912,0.708160,0.249140,0.159513
1710116263.374216,67.000000,0.000000,4222.000000,4261.523926,0.000000,2.000000,40.000000,,,,0.000000,4.000000,4.000000,100.000000,,,,,,,,,,,,,,,,,,,,,,,,,,,,,,,,,
1710116263.382074,68.000000,0.000000,4221.047852,4246.285645,0.000000,2.000000,40.000000,,,,0.000000,4.000000,4.000000,100.000000,,,,,,,,,,,,,,,,,,,,,,,,,,,,,,,,,
1710116263.389932,69.000000,0.000000,4218.666504,4239.619141,0.000000,2.000000,40.000000,,,,0.000000,4.000000,4.000000,100.000000,,,,,,,,,,,,,,,,,,,,,,,,,,,,,,,,,
1710116263.397791,70.000000,0.000000,4217.714355,4244.856934,0.000000,2.000000,40.000000,,,,0.000000,4.000000,4.000000,100.000000,,,,,1.000000,1.000000,0.565406,0.294922,-0.734375,-0.232422,,,,,,,,,,,,,,,,,,,,,,,
1710116264.070753,110.000000,0.000000,4192.476074,4272.952148,0.000000,2.000000,40.000000,,,,0.000000,4.000000,4.000000,100.000000,,,,,,,,,,,,,,,,,,,,,,,,,,,,,,,,,
1710116264.078566,111.000000,0.000000,4186.285645,4276.285645,0.000000,2.000000,40.000000,,,,0.000000,4.000000,4.000000,100.000000,,,,,2.000000,0.000000,0.563584,0.296875,-0.734375,-0.234375,,,,,,,,,,,,,,,,,,,,,,,
1710116264.086378,112.000000,0.000000,4185.809570,4275.809570,0.000000,2.000000,40.000000,,,,0.000000,4.000000,4.000000,100.000000,,,,,,,,,,,,,,,,,,,,,,,,,,,,,,,,,
1710116264.094191,113.000000,0.000000,4186.761719,4273.904785,0.000000,2.000000,40.000000,,,,0.000000,4.000000,4.000000,100.000000,,,,,,,,,,,,,,,,,,,,,,,,,,,,,,,,,
1710116264.102003,114.000000,0.000000,4186.761719,4269.619141,0.000000,2.000000,40.000000,,,,0.000000,4.000000,4.000000,100.000000,,,,,,,,,,,,,,,,,,,,,,,,,,,,,,,,,
1710116264.109816,115.000000,0.000000,4188.190430,4266.285645,0.000000,2.000000,40.000000,,,,0.000000,4.000000,4.000000,100.000000,,,,,,,,,,,,,,,,,,,,,,,,,,,,,,,,,
1710116264.117528,116.000000,0.000000,4187.714355,4272.476074,0.000000,2.000000,40.000000,,,,0.000000,4.000000,4.000000,100.000000,,,,,,,,,,,,,,,,,,,,,,,,,,,,,,,,,
1710116264.125341,117.000000,0.000000,4182.000000,4276.285645,0.000000,2.000000,40.000000,,,,0.000000,4.000000,4.000000,100.000000,,,,,,,,,,,,,,,,,,,,,,,,,,,,,,,,,
1710116264.133153,118.000000,0.000000,4179.619141,4270.095215,0.000000,2.000000,40.000000,,,,0.000000,4.000000,4.000000,100.000000,,,,,,,,,,,,,,,,,,,,,,,,,,,,,,,,,
1710116264.140966,119.000000,0.000000,4186.761719,4267.238281,0.000000,2.000000,40.000000,,,,0.000000,4.000000,4.000000,100.000000,,,,,,,,,,,,,,,,,,,,,,,,,,,,,,,,,
1710116264.148778,120.000000,0.000000,4191.523926,4271.523926,0.000000,2.000000,40.000000,,,,0.000000,4.000000,4.000000,100.000000,,,,,,,,,,,,,,,,,,,,,,,,,,,,,,,,,
1710116264.156491,121.000000,0.000000,4188.190430,4270.095215,0.000000,2.000000,40.000000,,,,0.000000,4.000000,4.000000,100.000000,-1.000000,100.000000,4.000000,4.000000,,,,,,,1.000000,0.000000,0.000000,,,,,,,,,,,1.471276,0.141818,0.276625,0.182767,0.074809,1.219439,0.480476,0.710250,0.220672,0.177390
1710116264.164304,122.000000,0.000000,4189.619141,4264.856934,0.000000,2.000000,40.000000,,,,0.000000,4.000000,4.000000,100.000000,,,,,,,,,,,,,,,,,,,,,,,,,,,,,,,,,
1710116264.172116,123.000000,0.000000,4192.476074,4266.761719,0.000000,2.000000,40.000000,,,,0.000000,4.000000,4.000000,100.000000,,,,,,,,,,,,,,,,,,,,,,,,,,,,,,,,,
1710116264.179929,124.000000,0.000000,4189.143066,4273.904785,0.000000,2.000000,40.000000,,,,0.000000,4.000000,4.000000,100.000000,,,,,,,,,,,,,,,,,,,,,,,,,,,,,,,,,
1710116264.187741,125.000000,0.000000,4187.714355,4276.761719,0.000000,2.000000,40.000000,,,,0.000000,4.000000,4.000000,100.000000,,,,,,,,,,,,,,,,,,,,,,,,,,,,,,,,,
1710116264.195454,126.000000,0.000000,4190.095215,4274.856934,0.000000,2.000000,40.000000,,,,0.000000,4.000000,4.000000,100.000000,,,,,,,,,,,,,,,,,,,,,,,,,,,,,,,,,
1710116264.203266,127.000000,0.000000,4186.285645,4278.666504,0.000000,2.000000,40.000000,,,,0.000000,4.000000,4.000000,100.000000,,,,,,,,,,,,,,,,,,,,,,,,,,,,,,,,,
1710116264.211079,0.000000,0.000000,4181.523926,4287.238281,0.000000,2.000000,40.000000,,,,0.000000,4.000000,4.000000,100.000000,,,,,,,,,,,,,,,,,,,,,,,,,,,,,,,,,
1710116264.218891,1.000000,0.000000,4182.000000,4286.761719,0.000000,2.000000,40.000000,,,,0.000000,4.000000,4.000000,100.000000,,,,,,,,,,,,,,,,,,,,,,,,,,,,,,,,,
1710116264.226704,2.000000,0.000000,4180.571289,4278.666504,0.000000,2.000000,40.000000,,,,0.000000,4.000000,4.000000,100.000000,,,,,,,,,,,,,,,,,,,,,,,,,,,,,,,,,
1710116264.234616,3.000000,0.000000,4179.143066,4276.761719,0.000000,2.000000,40.000000,,,,0.000000,4.000000,4.000000,100.000000,,,,,3.000000,0.000000,0.565624,0.292969,-0.734375,-0.234375,,,,,,,,,,,,,,,,,,,,,,,
1710116264.242429,4.000000,0.000000,4182.952148,4280.571289,0.000000,2.000000,40.000000,,,,0.000000,4.000000,4.000000,100.000000,,,,,,,,,,,,,,,,,,,,,,,,,,,,,,,,,
1710116264.250241,5.000000,0.000000,4187.714355,4286.761719,0.000000,2.000000,40.000000,,,,0.000000,4.000000,4.000000,100.000000,,,,,,,,,,,,,,,,,,,,,,,,,,,,,,,,,
1710116264.258054,6.000000,0.000000,4191.523926,4294.380859,0.000000,2.000000,40.000000,,,,0.000000,4.000000,4.000000,100.000000,,,,,,,,,,,,,,,,,,,,,,,,,,,,,,,,,
1710116264.265866,7.000000,0.000000,4192.476074,4296.285645,0.000000,2.000000,40.000000,,,,0.000000,4.000000,4.000000,100.000000,,,,,,,,,,,,,,,,,,,,,,,,,,,,,,,,,
1710116264.273579,8.000000,0.000000,4185.809570,4290.571289,0.000000,2.000000,40.000000,,,,0.000000,4.000000,4.000000,100.000000,,,,,,,,,,,,,,,,,,,,,,,,,,,,,,,,,
1710116264.281391,9.000000,0.000000,4180.571289,4287.238281,0.000000,2.000000,40.000000,,,,0.000000,4.000000,4.000000,100.000000,,,,,,,,,,,1.000000,0.000000,0.000000,,,,,,,,,,,1.649855,0.133809,0.277872,0.177775,0.066357,1.606363,0.520047,0.676811,0.212367,0.188874
1710116264.289204,10.000000,0.000000,4183.904785,4290.095215,0.000000,2.000000,40.000000,,,,0.000000,4.000000,4.000000,100.000000,,,,,,,,,,,,,,,,,,,,,,,,,,,,,,,,,
1710116264.297016,11.000000,0.000000,4182.000000,4295.809570,0.000000,2.000000,40.000000,,,,0.000000,4.000000,4.000000,100.000000,,,,,,,,,,,,,,,,,,,,,,,,,,,,,,,,,
1710116264.304829,12.000000,0.000000,4171.523926,4305.333496,0.000000,2.000000,40.000000,,,,0.000000,4.000000,4.000000,100.000000,,,,,,,,,,,,,,,,,,,,,,,,,,,,,,,,,
1710116264.312541,13.000000,0.000000,4166.285645,4312.000000,0.000000,2.000000,40.000000,,,,0.000000,4.000000,4.000000,100.000000,,,,,,,,,,,,,,,,,,,,,,,,,,,,,,,,,
1710116264.320354,14.000000,0.000000,4164.856934,4304.380859,0.000000,2.000000,40.000000,,,,0.000000,4.000000,4.000000,100.000000,,,,,,,,,,,,,,,,,,,,,,,,,,,,,,,,,
1710116264.328166,15.000000,0.000000,4163.428711,4291.047852,0.000000,2.000000,40.000000,,,,0.000000,4.000000,4.000000,100.000000,,,,,,,,,,,,,,,,,,,,,,,,,,,,,,,,,
1710116264.335979,16.000000,0.000000,4165.809570,4287.238281,0.000000,2.000000,40.000000,,,,0.000000,4.000000,4.000000,100.000000,,,,,,,,,,,,,,,,,,,,,,,,,,,,,,,,,
1710116264.343791,17.000000,0.000000,4166.285645,4290.095215,0.000000,2.000000,40.000000,,,,0.000000,4.000000,4.000000,100.000000,,,,,,,,,,,,,,,,,,,,,,,,,,,,,,,,,
1710116264.351504,18.000000,0.000000,4161.047852,4288.666504,0.000000,2.000000,40.000000,,,,0.000000,4.000000,4.000000,100.000000,,,,,,,,,,,,,,,,,,,,,,,,,,,,,,,,,
1710116264.359316,19.000000,0.000000,4158.190430,4285.333496,0.000000,2.000000,40.000000,,,,0.000000,4.000000,4.000000,100.000000,,,,,,,,,,,,,,,,,,,,,,,,,,,,,,,,,
1710116264.367129,20.000000,0.000000,4155.333496,4286.761719,0.000000,2.000000,40.000000,,,,0.000000,4.000000,4.000000,100.000000,,,,,,,,,,,,,,,,,,,,,,,,,,,,,,,,,
1710116264.374941,21.000000,0.000000,4147.714355,4290.571289,0.000000,2.000000,40.000000,,,,0.000000,4.000000,4.000000,100.000000,,,,,,,,,,,,,,,,,,,,,,,,,,,,,,,,,
1710116264.382754,22.000000,0.000000,4148.190430,4292.952148,0.000000,2.000000,40.000000,,,,0.000000,4.000000,4.000000,100.000000,,,,,,,,,,,,,,,,,,,,,,,,,,,,,,,,,
1710116264.390467,23.000000,0.000000,4154.856934,4293.904785,0.000000,2.000000,40.000000,,,,0.000000,4.000000,4.000000,100.000000,,,,,4.000000,0.000000,0.570660,0.292969,-0.730469,-0.234375,,,,,,,,,,,,,,,,,,,,,,,
1710116264.398279,24.000000,0.000000,4154.856934,4290.095215,0.000000,2.000000,40.000000,,,,0.000000,4.000000,4.000000,100.000000,,,,,,,,,,,,,,,,,,,,,,,,,,,,,,,,,
1710116264.406092,25.000000,0.000000,4150.095215,4282.952148,0.000000,2.000000,40.000000,,,,0.000000,4.000000,4.000000,100.000000,,,,,,,,,,,1.000000,0.000000,0.000000,,,,,,,,,,,1.849717,0.164468,0.272367,0.170671,0.065795,1.952972,0.590661,0.608577,0.232880,0.191266
1710116264.413904,26.000000,0.000000,4147.714355,4276.285645,0.000000,2.000000,40.000000,,,,0.000000,4.000000,4.000000,100.000000,,,,,,,,,,,,,,,,,,,,,,,,,,,,,,,,,
1710116264.421717,27.000000,0.000000,4142.952148,4269.143066,0.000000,2.000000,40.000000,,,,0.000000,4.000000,4.000000,100.000000,,,,,,,,,,,,,,,,,,,,,,,,,,,,,,,,,
1710116264.429429,28.000000,0.000000,4139.619141,4262.476074,0.000000,2.000000,40.000000,,,,0.000000,4.000000,4.000000,100.000000,,,,,,,,,,,,,,,,,,,,,,,,,,,,,,,,,
1710116264.437242,29.000000,0.000000,4144.380859,4261.047852,0.000000,2.000000,40.000000,,,,0.000000,4.000000,4.000000,100.000000,,,,,,,,,,,,,,,,,,,,,,,,,,,,,,,,,
1710116264.445054,30.000000,0.000000,4152.000000,4263.904785,0.000000,2.000000,40.000000,,,,0.000000,4.000000,4.000000,100.000000,,,,,,,,,,,,,,,,,,,,,,,,,,,,,,,,,
1710116264.452867,31.000000,0.000000,4155.809570,4264.856934,0.000000,2.000000,40.000000,,,,0.000000,4.000000,4.000000,100.000000,,,,,,,,,,,,,,,,,,,,,,,,,,,,,,,,,
1710116264.460679,32.000000,0.000000,4155.333496,4262.476074,0.000000,2.000000,40.000000,,,,0.000000,4.000000,4.000000,100.000000,,,,,,,,,,,,,,,,,,,,,,,,,,,,,,,,,
1710116264.468392,33.000000,0.000000,4155.809570,4260.095215,0.000000,2.000000,40.000000,,,,0.000000,4.000000,4.000000,100.000000,,,,,,,,,,,,,,,,,,,,,,,,,,,,,,,,,
1710116264.476204,34.000000,0.000000,4164.856934,4262.476074,0.000000,2.000000,40.000000,,,,0.000000,4.000000,4.000000,100.000000,,,,,,,,,,,,,,,,,,,,,,,,,,,,,,,,,
1710116264.484017,35.000000,0.000000,4176.285645,4266.761719,0.000000,2.000000,40.000000,,,,0.000000,4.000000,4.000000,100.000000,,,,,,,,,,,,,,,,,,,,,,,,,,,,,,,,,
1710116264.491829,36.000000,0.000000,4178.190430,4260.095215,0.000000,2.000000,40.000000,,,,0.000000,4.000000,4.000000,100.000000,,,,,,,,,,,,,,,,,,,,,,,,,,,,,,,,,
1710116264.499642,37.000000,0.000000,4177.714355,4247.238281,0.000000,2.000000,40.000000,,,,0.000000,4.000000,4.000000,100.000000,,,,,,,,,,,,,,,,,,,,,,,,,,,,,,,,,
1710116264.507354,38.000000,0.000000,4183.428711,4249.619141,0.000000,2.000000,40.000000,,,,0.000000,4.000000,4.000000,100.000000,,,,,,,,,,,,,,,,,,,,,,,,,,,,,,,,,
1710116264.515167,39.000000,0.000000,4188.666504,4260.571289,0.000000,2.000000,40.000000,,,,0.000000,4.000000,4.000000,100.000000,,,,,,,,,,,,,,,,,,,,,,,,,,,,,,,,,
1710116264.522979,40.000000,0.000000,4187.714355,4258.190430,0.000000,2.000000,40.000000,,,,0.000000,4.000000,4.000000,100.000000,,,,,,,,,,,,,,,,,,,,,,,,,,,,,,,,,
1710116264.530792,41.000000,0.000000,4186.285645,4248.190430,0.000000,2.000000,40.000000,,,,0.000000,4.000000,4.000000,100.000000,,,,,,,,,,,1.000000,0.000000,0.000000,,,,,,,,,,,2.004289,0.234882,0.269140,0.166476,0.071354,2.142159,0.686578,0.517436,0.285695,0.185323
1710116264.538604,42.000000,0.000000,4188.666504,4250.571289,0.000000,2.000000,40.000000,,,,0.000000,4.000000,4.000000,100.000000,,,,,,,,,,,,,,,,,,,,,,,,,,,,,,,,,
1710116264.546317,43.000000,0.000000,4194.856934,4259.143066,0.000000,2.000000,40.000000,,,,0.000000,4.000000,4.000000,100.000000,,,,,5.000000,0.000000,0.570660,0.292969,-0.730469,-0.234375,,,,,,,,,,,,,,,,,,,,,,,
1710116264.554129,44.000000,0.000000,4197.238281,4259.143066,0.000000,2.000000,40.000000,,,,0.000000,4.000000,4.000000,100.000000,,,,,,,,,,,,,,,,,,,,,,,,,,,,,,,,,
1710116264.561942,45.000000,0.000000,4192.476074,4252.952148,0.000000,2.000000,40.000000,,,,0.000000,4.000000,4.000000,100.000000,,,,,,,,,,,,,,,,,,,,,,,,,,,,,,,,,
1710116264.569754,46.000000,0.000000,4188.190430,4248.666504,0.000000,2.000000,40.000000,,,,0.000000,4.000000,4.000000,100.000000,,,,,,,,,,,,,,,,,,,,,,,,,,,,,,,,,
1710116264.577567,47.000000,0.000000,4190.095215,4246.285645,0.000000,2.000000,40.000000,,,,0.000000,4.000000,4.000000,100.000000,,,,,,,,,,,,,,,,,,,,,,,,,,,,,,,,,
1710116264.585280,48.000000,0.000000,4192.476074,4242.952148,0.000000,2.000000,40.000000,,,,0.000000,4.000000,4.000000,100.000000,,,,,,,,,,,,,,,,,,,,,,,,,,,,,,,,,
1710116264.593092,49.000000,0.000000,4195.809570,4242.000000,0.000000,2.000000,40.000000,,,,0.000000,4.000000,4.000000,100.000000,,,,,,,,,,,,,,,,,,,,,,,,,,,,,,,,,
1710116264.600905,50.000000,0.000000,4200.095215,4244.856934,0.000000,2.000000,40.000000,,,,0.000000,4.000000,4.000000,100.000000,,,,,,,,,,,,,,,,,,,,,,,,,,,,,,,,,
1710116264.608717,51.000000,0.000000,4201.523926,4246.285645,0.000000,2.000000,40.000000,,,,0.000000,4.000000,4.000000,100.000000,,,,,,,,,,,,,,,,,,,,,,,,,,,,,,,,,
1710116264.616530,52.000000,0.000000,4198.666504,4242.476074,0.000000,2.000000,40.000000,,,,0.000000,4.000000,4.000000,100.000000,,,,,,,,,,,,,,,,,,,,,,,,,,,,,,,,,
1710116264.624242,53.000000,0.000000,4196.761719,4234.380859,0.000000,2.000000,40.000000,,,,0.000000,4.000000,4.000000,100.000000,,,,,,,,,,,,,,,,,,,,,,,,,,,,,,,,,
1710116264.632055,54.000000,0.000000,4195.809570,4229.143066,0.000000,2.000000,40.000000,,,,0.000000,4.000000,4.000000,100.000000,,,,,,,,,,,,,,,,,,,,,,,,,,,,,,,,,
1710116264.639867,55.000000,0.000000,4194.856934,4229.619141,0.000000,2.000000,40.000000,,,,0.000000,4.000000,4.000000,100.000000,,,,,,,,,,,,,,,,,,,,,,,,,,,,,,,,,
1710116264.647680,56.000000,0.000000,4195.333496,4227.714355,0.000000,2.000000,40.000000,,,,0.000000,4.000000,4.000000,100.000000,,,,,,,,,,,,,,,,,,,,,,,,,,,,,,,,,
1710116264.655492,57.000000,0.000000,4196.285645,4218.190430,0.000000,2.000000,40.000000,,,,0.000000,4.000000,4.000000,100.000000,-1.000000,100.000000,4.000000,4.000000,,,,,,,1.000000,0.000000,0.000000,,,,,,,,,,,2.046018,0.339980,0.273141,0.169727,0.079652,2.119904,0.797261,0.429818,0.367409,0.174454
1710116264.663205,58.000000,0.000000,4197.714355,4218.190430,0.000000,2.000000,40.000000,,,,0.000000,4.000000,4.000000,100.000000,,,,,,,,,,,,,,,,,,,,,,,,,,,,,,,,,
1710116264.671017,59.000000,0.000000,4200.571289,4230.571289,0.000000,2.000000,40.000000,,,,0.000000,4.000000,4.000000,100.000000,,,,,,,,,,,,,,,,,,,,,,,,,,,,,,,,,
1710116264.678830,60.000000,0.000000,4204.380859,4234.380859,0.000000,2.000000,40.000000,,,,0.000000,4.000000,4.000000,100.000000,,,,,,,,,,,,,,,,,,,,,,,,,,,,,,,,,
1710116264.686642,61.000000,0.000000,4203.904785,4232.476074,0.000000,2.000000,40.000000,,,,0.000000,4.000000,4.000000,100.000000,,,,,,,,,,,,,,,,,,,,,,,,,,,,,,,,,
1710116264.694455,62.000000,0.000000,4202.952148,4236.761719,0.000000,2.000000,40.000000,,,,0.000000,4.000000,4.000000,100.000000,,,,,,,,,,,,,,,,,,,,,,,,,,,,,,,,,
1710116264.702367,63.000000,0.000000,4205.809570,4237.714355,0.000000,2.000000,40.000000,,,,0.000000,4.000000,4.000000,100.000000,,,,,6.000000,0.000000,0.568638,0.296875,-0.730469,-0.234375,,,,,,,,,,,,,,,,,,,,,,,
1710116264.710180,64.000000,0.000000,4206.285645,4234.380859,0.000000,2.000000,40.000000,,,,0.000000,4.000000,4.000000,100.000000,,,,,,,,,,,,,,,,,,,,,,,,,,,,,,,,,
1710116264.717992,65.000000,0.000000,4203.904785,4242.000000,0.000000,2.000000,40.000000,,,,0.000000,4.000000,4.000000,100.000000,,,,,,,,,,,,,,,,,,,,,,,,,,,,,,,,,
1710116264.725805,66.000000,0.000000,4205.333496,4248.666504,0.000000,2.000000,40.000000,,,,0.000000,4.000000,4.000000,100.000000,,,,,,,,,,,,,,,,,,,,,,,,,,,,,,,,,
1710116264.733617,67.000000,0.000000,4209.143066,4241.047852,0.000000,2.000000,40.000000,,,,0.000000,4.000000,4.000000,100.000000,,,,,,,,,,,,,,,,,,,,,,,,,,,,,,,,,
1710116264.741330,68.000000,0.000000,4210.095215,4234.856934,0.000000,2.000000,40.000000,,,,0.000000,4.000000,4.000000,100.000000,,,,,,,,,,,,,,,,,,,,,,,,,,,,,,,,,
1710116264.749142,69.000000,0.000000,4211.047852,4237.238281,0.000000,2.000000,40.000000,,,,0.000000,4.000000,4.000000,100.000000,,,,,,,,,,,,,,,,,,,,,,,,,,,,,,,,,
1710116264.756955,70.000000,0.000000,4210.095215,4241.523926,0.000000,2.000000,40.000000,,,,0.000000,4.000000,4.000000,100.000000,,,,,,,,,,,,,,,,,,,,,,,,,,,,,,,,,
1710116264.764767,71.000000,0.000000,4203.904785,4245.809570,0.000000,2.000000,40.000000,,,,0.000000,4.000000,4.000000,100.000000,,,,,,,,,,,,,,,,,,,,,,,,,,,,,,,,,
1710116264.772580,72.000000,0.000000,4203.428711,4242.000000,0.000000,2.000000,40.000000,,,,0.000000,4.000000,4.000000,100.000000,,,,,,,,,,,,,,,,,,,,,,,,,,,,,,,,,
1710116264.780292,73.000000,0.000000,4210.095215,4227.714355,0.000000,2.000000,40.000000,,,,0.000000,4.000000,4.000000,100.000000,,,,,,,,,,,1.000000,0.000000,0.000000,,,,,,,,,,,1.973663,0.469550,0.285889,0.182174,0.087345,1.943090,0.897298,0.373856,0.464428,0.162883
1710116264.788105,74.000000,0.000000,4212.000000,4226.285645,0.000000,2.000000,40.000000,,,,0.000000,4.000000,4.000000,100.000000,,,,,,,,,,,,,,,,,,,,,,,,,,,,,,,,,
1710116264.795917,75.000000,0.000000,4207.238281,4234.856934,0.000000,2.000000,40.000000,,,,0.000000,4.000000,4.000000,100.000000,,,,,,,,,,,,,,,,,,,,,,,,,,,,,,,,,
1710116264.803730,76.000000,0.000000,4205.809570,4228.190430,0.000000,2.000000,40.000000,,,,0.000000,4.000000,4.000000,100.000000,,,,,,,,,,,,,,,,,,,,,,,,,,,,,,,,,
1710116264.811542,77.000000,0.000000,4207.238281,4215.333496,0.000000,2.000000,40.000000,,,,0.000000,4.000000,4.000000,100.000000,,,,,,,,,,,,,,,,,,,,,,,,,,,,,,,,,
1710116264.819455,78.000000,0.000000,4207.238281,4216.761719,0.000000,2.000000,40.000000,,,,0.000000,4.000000,4.000000,100.000000,,,,,,,,,,,,,,,,,,,,,,,,,,,,,,,,,
1710116264.827267,79.000000,0.000000,4206.761719,4218.666504,0.000000,2.000000,40.000000,,,,0.000000,4.000000,4.000000,100.000000,,,,,,,,,,,,,,,,,,,,,,,,,,,,,,,,,
1710116264.835080,80.000000,0.000000,4207.238281,4213.428711,0.000000,2.000000,40.000000,,,,0.000000,4.000000,4.000000,100.000000,,,,,,,,,,,,,,,,,,,,,,,,,,,,,,,,,
1710116264.842892,81.000000,0.000000,4209.619141,4214.856934,0.000000,2.000000,40.000000,,,,0.000000,4.000000,4.000000,100.000000,,,,,,,,,,,,,,,,,,,,,,,,,,,,,,,,,
1710116264.850705,82.000000,0.000000,4211.523926,4218.666504,0.000000,2.000000,40.000000,,,,0.000000,4.000000,4.000000,100.000000,,,,,,,,,,,,,,,,,,,,,,,,,,,,,,,,,
1710116264.858417,83.000000,0.000000,4211.523926,4217.714355,0.000000,2.000000,40.000000,,,,0.000000,4.000000,4.000000,100.000000,,,,,7.000000,0.000000,0.568638,0.296875,-0.730469,-0.234375,,,,,,,,,,,,,,,,,,,,,,,
1710116264.866230,84.000000,0.000000,4214.380859,4218.190430,0.000000,2.000000,40.000000,,,,0.000000,4.000000,4.000000,100.000000,,,,,,,,,,,,,,,,,,,,,,,,,,,,,,,,,
1710116264.874042,85.000000,0.000000,4216.761719,4221.523926,0.000000,2.000000,40.000000,,,,0.000000,4.000000,4.000000,100.000000,,,,,,,,,,,,,,,,,,,,,,,,,,,,,,,,,
1710116264.881855,86.000000,0.000000,4214.380859,4227.238281,0.000000,2.000000,40.000000,,,,0.000000,4.000000,4.000000,100.000000,,,,,,,,,,,,,,,,,,,,,,,,,,,,,,,,,
1710116264.889667,87.000000,0.000000,4211.047852,4232.952148,0.000000,2.000000,40.000000,,,,0.000000,4.000000,4.000000,100.000000,,,,,,,,,,,,,,,,,,,,,,,,,,,,,,,,,
1710116264.897380,88.000000,0.000000,4209.619141,4232.000000,0.000000,2.000000,40.000000,,,,0.000000,4.000000,4.000000,100.000000,,,,,,,,,,,,,,,,,,,,,,,,,,,,,,,,,
1710116264.905192,89.000000,0.000000,4211.047852,4227.238281,0.000000,2.000000,40.000000,,,,0.000000,4.000000,4.000000,100.000000,,,,,,,,,,,1.000000,0.000000,0.000000,,,,,,,,,,,1.823443,0.598092,0.303495,0.199893,0.092018,1.682354,0.960881,0.363950,0.554100,0.153705
1710116264.913005,90.000000,0.000000,4216.285645,4223.428711,0.000000,2.000000,40.000000,,,,0.000000,4.000000,4.000000,100.000000,,,,,,,,,,,,,,,,,,,,,,,,,,,,,,,,,
1710116264.920817,91.000000,0.000000,4216.285645,4213.904785,0.000000,2.000000,40.000000,,,,0.000000,4.000000,4.000000,100.000000,,,,,,,,,,,,,,,,,,,,,,,,,,,,,,,,,
1710116264.928630,92.000000,0.000000,4209.619141,4205.809570,0.000000,2.000000,40.000000,,,,0.000000,4.000000,4.000000,100.000000,,,,,,,,,,,,,,,,,,,,,,,,,,,,,,,,,
1710116264.936343,93.000000,0.000000,4209.619141,4211.523926,0.000000,2.000000,40.000000,,,,0.000000,4.000000,4.000000,100.000000,,,,,,,,,,,,,,,,,,,,,,,,,,,,,,,,,
1710116264.944155,94.000000,0.000000,4211.523926,4216.285645,0.000000,2.000000,40.000000,,,,0.000000,4.000000,4.000000,100.000000,,,,,,,,,,,,,,,,,,,,,,,,,,,,,,,,,
1710116264.951968,95.000000,0.000000,4204.380859,4212.952148,0.000000,2.000000,40.000000,,,,0.000000,4.000000,4.000000,100.000000,,,,,,,,,,,,,,,,,,,,,,,,,,,,,,,,,
1710116264.959780,96.000000,0.000000,4198.666504,4215.333496,0.000000,2.000000,40.000000,,,,0.000000,4.000000,4.000000,100.000000,,,,,,,,,,,,,,,,,,,,,,,,,,,,,,,,,
1710116264.967593,97.000000,0.000000,4199.619141,4218.666504,0.000000,2.000000,40.000000,,,,0.000000,4.000000,4.000000,100.000000,,,,,,,,,,,,,,,,,,,,,,,,,,,,,,,,,
1710116264.975305,98.000000,0.000000,4200.571289,4215.333496,0.000000,2.000000,40.000000,,,,0.000000,4.000000,4.000000,100.000000,,,,,,,,,,,,,,,,,,,,,,,,,,,,,,,,,
1710116264.983118,99.000000,0.000000,4204.380859,4214.856934,0.000000,2.000000,40.000000,,,,0.000000,4.000000,4.000000,100.000000,,,,,,,,,,,,,,,,,,,,,,,,,,,,,,,,,
1710116264.990930,100.000000,0.000000,4209.143066,4219.619141,0.000000,2.000000,40.000000,,,,0.000000,4.000000,4.000000,100.000000,,,,,,,,,,,,,,,,,,,,,,,,,,,,,,,,,
1710116264.998743,101.000000,0.000000,4204.856934,4221.523926,0.000000,2.000000,40.000000,,,,0.000000,4.000000,4.000000,100.000000,,,,,,,,,,,,,,,,,,,,,,,,,,,,,,,,,
1710116265.006555,102.000000,0.000000,4197.714355,4222.952148,0.000000,2.000000,40.000000,,,,0.000000,4.000000,4.000000,100.000000,,,,,,,,,,,,,,,,,,,,,,,,,,,,,,,,,
1710116265.014268,103.000000,0.000000,4199.619141,4224.380859,0.000000,2.000000,40.000000,,,,0.000000,4.000000,4.000000,100.000000,,,,,8.000000,0.000000,0.568638,0.296875,-0.730469,-0.234375,,,,,,,,,,,,,,,,,,,,,,,
1710116265.022080,104.000000,0.000000,4203.904785,4226.285645,0.000000,2.000000,40.000000,,,,0.000000,4.000000,4.000000,100.000000,,,,,,,,,,,,,,,,,,,,,,,,,,,,,,,,,
1710116265.029893,105.000000,0.000000,4203.904785,4227.238281,0.000000,2.000000,40.000000,,,,0.000000,4.000000,4.000000,100.000000,,,,,,,,,,,1.000000,0.000000,0.000000,,,,,,,,,,,1.671405,0.691902,0.318523,0.214696,0.092577,1.503759,0.967151,0.398558,0.610482,0.148634
1710116265.037705,106.000000,0.000000,4200.095215,4222.000000,0.000000,2.000000,40.000000,,,,0.000000,4.000000,4.000000,100.000000,,,,,,,,,,,,,,,,,,,,,,,,,,,,,,,,,
1710116265.045518,107.000000,0.000000,4194.856934,4220.095215,0.000000,2.000000,40.000000,,,,0.000000,4.000000,4.000000,100.000000,,,,,,,,,,,,,,,,,,,,,,,,,,,,,,,,,
1710116265.053230,108.000000,0.000000,4192.000000,4223.904785,0.000000,2.000000,40.000000,,,,0.000000,4.000000,4.000000,100.000000,,,,,,,,,,,,,,,,,,,,,,,,,,,,,,,,,
1710116265.061043,109.000000,0.000000,4195.333496,4219.143066,0.000000,2.000000,40.000000,,,,0.000000,4.000000,4.000000,100.000000,,,,,,,,,,,,,,,,,,,,,,,,,,,,,,,,,
1710116265.068855,110.000000,0.000000,4200.571289,4212.952148,0.000000,2.000000,40.000000,,,,0.000000,4.000000,4.000000,100.000000,,,,,,,,,,,,,,,,,,,,,,,,,,,,,,,,,
1710116265.076668,111.000000,0.000000,4204.856934,4222.000000,0.000000,2.000000,40.000000,,,,0.000000,4.000000,4.000000,100.000000,,,,,,,,,,,,,,,,,,,,,,,,,,,,,,,,,
1710116265.084480,112.000000,0.000000,4207.238281,4224.856934,0.000000,2.000000,40.000000,,,,0.000000,4.000000,4.000000,100.000000,,,,,,,,,,,,,,,,,,,,,,,,,,,,,,,,,
1710116265.092193,113.000000,0.000000,4203.428711,4212.952148,0.000000,2.000000,40.000000,,,,0.000000,4.000000,4.000000,100.000000,,,,,,,,,,,,,,,,,,,,,,,,,,,,,,,,,
1710116265.100005,114.000000,0.000000,4198.190430,4214.380859,0.000000,2.000000,40.000000,,,,0.000000,4.000000,4.000000,100.000000,,,,,,,,,,,,,,,,,,,,,,,,,,,,,,,,,
1710116265.107818,115.000000,0.000000,4200.571289,4228.190430,0.000000,2.000000,40.000000,,,,0.000000,4.000000,4.000000,100.000000,,,,,,,,,,,,,,,,,,,,,,,,,,,,,,,,,
1710116265.115630,116.000000,0.000000,4204.380859,4227.714355,0.000000,2.000000,40.000000,,,,0.000000,4.000000,4.000000,100.000000,,,,,,,,,,,,,,,,,,,,,,,,,,,,,,,,,
1710116265.123443,117.000000,0.000000,4203.904785,4217.238281,0.000000,2.000000,40.000000,,,,0.000000,4.000000,4.000000,100.000000,,,,,,,,,,,,,,,,,,,,,,,,,,,,,,,,,
1710116265.131156,118.000000,0.000000,4205.333496,4210.571289,0.000000,2.000000,40.000000,,,,0.000000,4.000000,4.000000,100.000000,,,,,,,,,,,,,,,,,,,,,,,,,,,,,,,,,
1710116265.138968,119.000000,0.000000,4209.619141,4204.380859,0.000000,2.000000,40.000000,,,,0.000000,4.000000,4.000000,100.000000,,,,,,,,,,,,,,,,,,,,,,,,,,,,,,,,,
1710116265.146781,120.000000,0.000000,4206.285645,4206.761719,0.000000,2.000000,40.000000,,,,0.000000,4.000000,4.000000,100.000000,,,,,,,,,,,,,,,,,,,,,,,,,,,,,,,,,
1710116265.154593,121.000000,0.000000,4197.714355,4220.095215,0.000000,2.000000,40.000000,,,,0.000000,4.000000,4.000000,100.000000,-1.000000,75.000000,3.000000,3.000000,,,,,,,1.000000,0.000000,0.000000,,,,,,,,,,,1.551955,0.724861,0.321808,0.218747,0.089190,1.476127,0.914640,0.460970,0.615432,0.147785
1710116265.162406,122.000000,0.000000,4198.666504,4229.143066,0.000000,2.000000,40.000000,,,,0.000000,4.000000,4.000000,100.000000,,,,,,,,,,,,,,,,,,,,,,,,,,,,,,,,,
1710116265.170118,123.000000,0.000000,4208.190430,4229.619141,0.000000,2.000000,40.000000,,,,0.000000,4.000000,4.000000,100.000000,,,,,9.000000,0.000000,0.568638,0.296875,-0.730469,-0.234375,,,,,,,,,,,,,,,,,,,,,,,
1710116265.177931,124.000000,0.000000,4212.000000,4227.238281,0.000000,2.000000,40.000000,,,,0.000000,4.000000,4.000000,100.000000,,,,,,,,,,,,,,,,,,,,,,,,,,,,,,,,,
1710116265.185743,125.000000,0.000000,4206.761719,4223.428711,0.000000,2.000000,40.000000,,,,0.000000,4.000000,4.000000,100.000000,,,,,,,,,,,,,,,,,,,,,,,,,,,,,,,,,
1710116265.193556,126.000000,0.000000,4202.476074,4222.000000,0.000000,2.000000,40.000000,,,,0.000000,4.000000,4.000000,100.000000,,,,,,,,,,,,,,,,,,,,,,,,,,,,,,,,,
1710116265.201368,127.000000,0.000000,4201.047852,4222.476074,0.000000,2.000000,40.000000,,,,0.000000,4.000000,4.000000,100.000000,,,,,,,,,,,,,,,,,,,,,,,,,,,,,,,,,
1710116265.209081,0.000000,0.000000,4201.047852,4216.761719,0.000000,2.000000,40.000000,,,,0.000000,4.000000,4.000000,100.000000,,,,,,,,,,,,,,,,,,,,,,,,,,,,,,,,,
1710116265.216893,1.000000,0.000000,4200.571289,4212.000000,0.000000,2.000000,40.000000,,,,0.000000,4.000000,4.000000,100.000000,,,,,,,,,,,,,,,,,,,,,,,,,,,,,,,,,
1710116265.224706,2.000000,0.000000,4201.047852,4216.761719,0.000000,2.000000,40.000000,,,,0.000000,4.000000,4.000000,100.000000,,,,,,,,,,,,,,,,,,,,,,,,,,,,,,,,,
1710116265.232518,3.000000,0.000000,4204.380859,4218.190430,0.000000,2.000000,40.000000,,,,0.000000,4.000000,4.000000,100.000000,,,,,,,,,,,,,,,,,,,,,,,,,,,,,,,,,
1710116265.240331,4.000000,0.000000,4205.809570,4212.952148,0.000000,2.000000,40.000000,,,,0.000000,4.000000,4.000000,100.000000,,,,,,,,,,,,,,,,,,,,,,,,,,,,,,,,,
1710116265.248043,5.000000,0.000000,4200.095215,4212.000000,0.000000,2.000000,40.000000,,,,0.000000,4.000000,4.000000,100.000000,,,,,,,,,,,,,,,,,,,,,,,,,,,,,,,,,
1710116265.255856,6.000000,0.000000,4199.619141,4212.952148,0.000000,2.000000,40.000000,,,,0.000000,4.000000,4.000000,100.000000,,,,,,,,,,,,,,,,,,,,,,,,,,,,,,,,,
1710116265.263668,7.000000,0.000000,4206.285645,4215.333496,0.000000,2.000000,40.000000,,,,0.000000,4.000000,4.000000,100.000000,,,,,,,,,,,,,,,,,,,,,,,,,,,,,,,,,
1710116265.271481,8.000000,0.000000,4203.428711,4222.952148,0.000000,2.000000,40.000000,,,,0.000000,4.000000,4.000000,100.000000,,,,,,,,,,,,,,,,,,,,,,,,,,,,,,,,,
1710116265.279293,9.000000,0.000000,4193.428711,4222.476074,0.000000,2.000000,40.000000,,,,0.000000,4.000000,4.000000,100.000000,,,,,,,,,,,1.000000,0.000000,0.000000,,,,,,,,,,,1.473443,0.689571,0.308822,0.209759,0.082981,1.624656,0.821455,0.524523,0.567374,0.150212
1710116265.287206,10.000000,0.000000,4194.856934,4211.047852,0.000000,2.000000,40.000000,,,,0.000000,4.000000,4.000000,100.000000,,,,,,,,,,,,,,,,,,,,,,,,,,,,,,,,,
1710116265.295018,11.000000,0.000000,4199.619141,4210.571289,0.000000,2.000000,40.000000,,,,0.000000,4.000000,4.000000,100.000000,,,,,,,,,,,,,,,,,,,,,,,,,,,,,,,,,
